DTS Sentinel unit serial number:	SN413079Multiplexer serial number:	ORYXHardware model number:	OX4-SRSoftware version number:	ORYX F/W v4.00 Oryx Data Collector v3.7.2.0data status	okinstallation	princeton_trtdifferential loss correction	single-endedforward channel	channel 1reverse channel	N/Adate	2019/09/12time	15:28:11forward acquisition time	60.00reverse acquisition time	0.00gamma	496.2192k internal	0.2292k external	0.2292temperature offset calibration	1.0062default loss term (dB/km)	0.3790temperature slope calibration	1.0000multiplexer offset coefficient	1.0000multiplexer slope coefficient	1.0000fibre end	0.00T internal ref (°C)	40.66T ext. ref 1 (°C)	2.38T ext. ref 2 (°C)	34.03length (m)	temperature (°C)	Stokes	anti-Stokes-747.200	-72.771	0.337	0.127
-746.185	-15.115	-0.130	0.085
-745.171	54.628	-0.085	-0.084
-744.156	-200.000	-0.056	0.397
-743.142	560.277	0.080	-0.199
-742.127	477.656	-0.128	0.295
-741.112	-52.032	0.264	-0.126
-740.098	58.265	0.038	-0.038
-739.083	-163.576	-0.247	0.012
-738.069	306.390	0.151	0.288
-737.054	-17.367	0.357	-0.230
-736.039	-200.000	0.030	0.286
-735.025	-114.233	0.059	0.012
-734.010	-148.794	-0.161	-0.013
-732.996	131.015	0.124	-0.162
-731.981	658.562	-0.166	-0.437
-730.966	-105.549	-0.242	0.056
-729.952	-128.510	-0.201	-0.029
-728.937	-200.000	-0.036	0.240
-727.923	-141.865	-0.391	-0.040
-726.908	32.501	-0.183	-0.162
-725.894	7.760	0.063	-0.048
-724.879	90.895	0.101	0.116
-723.864	-118.445	0.151	-0.027
-722.850	-47.216	0.069	-0.034
-721.835	-30.615	-0.213	-0.124
-720.821	7.141	-0.035	-0.027
-719.806	-159.717	0.218	-0.012
-718.791	-26.857	-0.362	-0.216
-717.777	-60.901	0.007	-0.003
-716.762	800.000	-0.135	-0.450
-715.748	-86.880	0.065	0.020
-714.733	-174.220	-0.173	-0.005
-713.718	28.700	0.193	0.167
-712.704	-200.000	-0.009	0.178
-711.689	-45.669	-0.176	-0.089
-710.675	192.926	0.121	0.186
-709.660	-148.854	-0.049	0.004
-708.645	-165.023	-0.239	0.011
-707.631	-200.000	-0.006	-0.151
-706.616	800.000	0.073	-0.219
-705.602	489.023	-0.149	-0.347
-704.587	-166.927	0.150	0.006
-703.572	-155.743	0.182	0.012
-702.558	-200.000	0.064	0.355
-701.543	800.000	0.057	0.181
-700.529	-109.967	-0.313	-0.067
-699.514	21.658	-0.079	-0.066
-698.499	-20.769	-0.113	-0.071
-697.485	237.473	0.150	-0.255
-696.470	51.055	-0.232	0.224
-695.456	-200.000	0.055	-0.253
-694.441	30.755	0.205	-0.179
-693.426	-95.290	-0.201	-0.055
-692.412	-200.000	-0.032	-0.228
-691.397	242.738	0.047	0.080
-690.383	58.217	0.116	-0.116
-689.368	-5.019	-0.409	0.288
-688.354	185.903	-0.091	0.138
-687.339	-121.395	0.115	0.019
-686.324	25.293	0.150	0.128
-685.310	-35.386	-0.292	0.162
-684.295	-200.000	-0.004	-0.199
-683.281	-85.768	-0.178	-0.056
-682.266	320.690	0.087	0.169
-681.251	-73.197	0.204	-0.076
-680.237	-200.000	-0.307	-0.001
-679.222	1.080	-0.095	0.070
-678.208	-68.695	-0.195	-0.077
-677.193	170.299	0.078	-0.114
-676.178	114.485	0.133	-0.165
-675.164	265.544	0.067	0.120
-674.149	-70.444	-0.135	0.052
-673.135	568.722	0.129	-0.320
-672.120	429.627	-0.063	-0.140
-671.105	-200.000	0.009	0.095
-670.091	-95.842	0.198	-0.054
-669.076	-122.448	0.211	-0.035
-668.062	-146.320	0.105	0.009
-667.047	-200.000	0.007	-0.161
-666.032	-153.026	0.185	0.013
-665.018	-162.598	0.295	-0.015
-664.003	-119.553	-0.433	0.077
-662.989	800.000	0.054	0.213
-661.974	-200.000	-0.027	-0.226
-660.959	-16.619	0.334	-0.216
-659.945	-200.000	0.007	-0.221
-658.930	-198.380	-0.347	-0.002
-657.916	-96.857	0.245	-0.066
-656.901	-161.984	-0.106	-0.005
-655.886	2.613	0.404	0.299
-654.872	87.576	0.168	0.190
-653.857	115.808	-0.253	0.316
-652.843	-62.801	-0.151	-0.064
-651.828	-200.000	0.007	0.200
-650.814	-60.514	0.381	-0.165
-649.799	-200.000	-0.008	0.173
-648.784	93.033	-0.195	0.225
-647.770	-26.115	-0.161	-0.096
-646.755	-200.000	0.000	0.051
-645.741	180.433	0.115	-0.172
-644.726	-200.000	-0.030	-0.204
-643.711	67.397	-0.027	-0.029
-642.697	-28.869	-0.338	-0.198
-641.682	18.106	0.261	-0.212
-640.668	-131.310	0.169	-0.023
-639.653	88.234	0.181	0.205
-638.638	-112.384	-0.139	0.028
-637.624	-200.000	0.033	-0.178
-636.609	-175.426	0.034	0.001
-635.595	-26.894	0.239	0.142
-634.580	-143.546	-0.344	-0.033
-633.565	-200.000	-0.025	-0.119
-632.551	-105.603	-0.315	-0.073
-631.536	-22.790	-0.064	-0.039
-630.522	800.000	-0.072	-0.235
-629.507	-38.347	-0.074	0.040
-628.492	-175.622	0.219	-0.006
-627.478	577.317	0.136	-0.339
-626.463	45.423	0.306	-0.288
-625.449	800.000	-0.020	0.057
-624.434	-113.871	0.094	-0.019
-623.419	92.235	-0.074	-0.085
-622.405	-100.923	-0.267	-0.067
-621.390	-20.473	0.269	-0.168
-620.376	-200.000	-0.064	0.317
-619.361	94.167	0.103	-0.119
-618.346	374.051	0.142	-0.295
-617.332	413.814	0.081	-0.175
-616.317	-142.739	0.459	0.046
-615.303	-200.000	-0.031	0.180
-614.288	-106.089	-0.332	-0.076
-613.273	290.305	-0.108	-0.200
-612.259	-200.000	0.017	-0.216
-611.244	-22.299	-0.371	-0.229
-610.230	75.439	0.063	-0.068
-609.215	-10.788	-0.248	0.167
-608.201	-200.000	-0.018	-0.343
-607.186	800.000	-0.053	0.222
-606.171	800.000	-0.039	-0.133
-605.157	-136.726	-0.152	0.018
-604.142	-155.371	-0.202	-0.013
-603.128	15.030	0.158	0.126
-602.113	263.359	-0.072	-0.128
-601.098	-190.122	0.297	-0.003
-600.084	42.309	-0.036	-0.034
-599.069	-107.577	-0.213	0.047
-598.055	800.000	-0.056	-0.174
-597.040	800.000	-0.035	-0.108
-596.025	80.496	0.230	-0.252
-595.011	-12.343	0.113	0.075
-593.996	178.163	-0.140	0.208
-592.982	19.441	-0.249	-0.204
-591.967	-62.896	-0.329	-0.139
-590.952	116.487	-0.222	-0.277
-589.938	-59.576	-0.280	0.122
-588.923	-8.207	-0.245	-0.168
-587.909	-156.771	0.158	-0.010
-586.894	209.140	0.101	0.161
-585.879	-97.381	-0.145	0.039
-584.865	401.665	-0.116	-0.247
-583.850	-5.132	0.060	-0.042
-582.836	-200.000	0.017	-0.091
-581.821	-200.000	0.054	-0.323
-580.806	10.269	0.216	0.167
-579.792	800.000	0.099	0.374
-578.777	101.239	0.143	-0.169
-577.763	800.000	-0.030	-0.106
-576.748	-21.358	0.203	0.126
-575.733	91.601	-0.042	0.048
-574.719	735.981	-0.115	-0.314
-573.704	-200.000	-0.013	0.262
-572.690	32.932	0.176	0.155
-571.675	233.279	-0.031	0.051
-570.661	1.557	0.169	-0.124
-569.646	-94.344	0.310	-0.086
-568.631	-81.215	-0.482	0.162
-567.617	-42.830	-0.146	0.076
-566.602	-200.000	-0.018	0.173
-565.588	-18.151	-0.185	-0.118
-564.573	-177.487	-0.111	-0.003
-563.558	505.474	-0.055	-0.130
-562.544	220.528	-0.266	-0.434
-561.529	800.000	0.087	-0.300
-560.515	-138.098	0.129	0.015
-559.500	-21.454	-0.283	-0.175
-558.485	211.585	0.139	-0.223
-557.471	8.045	-0.150	0.114
-556.456	-65.622	-0.563	0.229
-555.442	800.000	-0.079	-0.275
-554.427	-114.107	-0.132	0.026
-553.412	-22.608	0.267	0.164
-552.398	-111.921	-0.089	-0.018
-551.383	433.770	0.134	-0.296
-550.369	-178.792	-0.209	-0.005
-549.354	-105.485	-0.119	0.028
-548.339	-200.000	0.023	-0.213
-547.325	48.652	-0.162	-0.155
-546.310	450.689	-0.083	0.187
-545.296	83.229	0.107	0.119
-544.281	-98.803	-0.210	-0.054
-543.266	421.456	-0.072	-0.157
-542.252	800.000	-0.127	-0.381
-541.237	-100.314	-0.181	-0.046
-540.223	132.988	-0.195	0.255
-539.208	-135.164	0.182	-0.022
-538.193	-113.054	-0.121	-0.024
-537.179	800.000	0.070	-0.212
-536.164	-75.702	0.211	-0.076
-535.150	-43.521	0.265	-0.136
-534.135	-200.000	-0.002	-0.089
-533.121	-42.541	-0.197	0.102
-532.106	180.069	-0.086	0.127
-531.091	800.000	0.056	-0.205
-530.077	-48.670	0.057	-0.028
-529.062	287.399	-0.034	-0.062
-528.048	800.000	-0.069	0.213
-527.033	659.645	0.115	0.299
-526.018	119.021	-0.274	0.343
-525.004	-8.506	-0.140	-0.096
-523.989	108.153	-0.109	0.132
-522.975	-131.140	-0.120	-0.016
-521.960	49.821	0.022	0.021
-520.945	-200.000	0.030	-0.277
-519.931	-200.000	0.061	-0.298
-518.916	123.275	0.135	-0.171
-517.902	-200.000	0.011	-0.148
-516.887	-166.878	-0.275	0.011
-515.872	800.000	0.066	0.229
-514.858	173.800	-0.037	-0.055
-513.843	-100.963	-0.405	0.101
-512.829	190.435	0.112	-0.170
-511.814	284.058	0.132	-0.242
-510.799	166.460	-0.076	-0.109
-509.785	-142.990	0.093	-0.009
-508.770	191.734	-0.064	-0.097
-507.756	-72.511	-0.032	0.012
-506.741	-62.687	-0.124	0.052
-505.726	-200.000	-0.033	-0.228
-504.712	-140.499	-0.223	-0.024
-503.697	160.615	0.159	-0.226
-502.683	-200.000	0.037	-0.446
-501.668	800.000	-0.049	0.217
-500.653	204.281	0.278	0.436
-499.639	-200.000	0.028	0.209
-498.624	769.093	0.041	-0.112
-497.610	184.295	0.014	0.021
-496.595	-200.000	0.045	-0.405
-495.581	800.000	-0.084	0.265
-494.566	216.440	0.011	-0.018
-493.551	15.879	0.092	-0.073
-492.537	-200.000	0.023	-0.353
-491.522	-200.000	-0.026	-0.307
-490.508	-53.836	-0.315	-0.146
-489.493	153.555	0.059	0.082
-488.478	800.000	0.050	0.165
-487.464	-91.285	0.267	-0.077
-486.449	-200.000	-0.054	0.347
-485.435	-36.412	0.132	-0.072
-484.420	-163.121	0.176	-0.009
-483.405	-178.325	-0.247	0.006
-482.391	92.817	0.075	-0.086
-481.376	25.496	0.138	0.116
-480.362	-200.000	0.003	0.145
-479.347	-200.000	0.011	-0.407
-478.332	698.707	0.047	-0.126
-477.318	-138.855	0.158	-0.017
-476.303	-200.000	0.014	-0.112
-475.289	-82.329	-0.078	0.026
-474.274	-200.000	-0.058	0.448
-473.259	-94.570	0.192	0.053
-472.245	-115.968	0.169	0.032
-471.230	800.000	-0.016	0.068
-470.216	129.829	0.109	-0.141
-469.201	-24.249	-0.267	0.162
-468.186	-143.171	0.409	-0.040
-467.172	4.098	-0.153	-0.114
-466.157	16.568	-0.039	-0.031
-465.143	800.000	0.037	-0.152
-464.128	-56.114	0.222	0.100
-463.113	-82.885	-0.312	-0.102
-462.099	320.159	0.065	0.126
-461.084	-177.087	0.143	0.004
-460.070	4.773	0.155	-0.116
-459.055	55.500	-0.131	0.128
-458.040	65.716	0.063	-0.065
-457.026	38.776	-0.167	-0.151
-456.011	330.951	0.031	0.061
-454.997	-200.000	-0.040	-0.551
-453.982	303.575	0.148	0.278
-452.968	-200.000	-0.010	0.094
-451.953	-92.917	-0.128	-0.036
-450.938	-9.720	0.023	0.015
-449.924	144.787	-0.156	-0.211
-448.909	-165.662	0.191	0.008
-447.895	-200.000	-0.033	0.182
-446.880	381.042	0.025	0.051
-445.865	97.503	-0.177	0.206
-444.851	209.959	-0.148	-0.234
-443.836	-109.115	-0.089	-0.019
-442.822	-10.680	0.048	0.032
-441.807	-200.000	0.004	0.164
-440.792	200.683	-0.104	0.162
-439.778	-200.000	-0.022	-0.124
-438.763	-72.361	-0.252	-0.094
-437.749	178.619	-0.108	-0.159
-436.734	-66.468	-0.138	0.055
-435.719	-200.000	-0.013	0.266
-434.705	-200.000	-0.007	-0.074
-433.690	374.118	-0.200	-0.412
-432.676	-125.148	0.136	-0.021
-431.661	-184.028	-0.161	0.003
-430.646	-30.797	0.248	-0.142
-429.632	510.212	0.046	0.109
-428.617	-200.000	-0.106	0.544
-427.603	103.201	-0.165	0.195
-426.588	25.325	0.074	0.062
-425.573	277.679	-0.116	-0.209
-424.559	122.898	0.148	0.187
-423.544	-101.774	-0.227	0.056
-422.530	-200.000	0.001	0.135
-421.515	36.669	-0.110	-0.098
-420.500	330.907	-0.016	-0.031
-419.486	-200.000	-0.004	-0.143
-418.471	313.358	0.134	-0.254
-417.457	76.540	-0.205	0.219
-416.442	309.002	0.076	0.143
-415.428	-167.010	-0.128	-0.005
-414.413	-118.621	0.319	-0.057
-413.398	-29.702	0.211	0.122
-412.384	-169.250	-0.479	0.018
-411.369	-200.000	-0.042	-0.212
-410.355	86.226	-0.136	-0.152
-409.340	-103.335	-0.214	0.051
-408.325	-138.076	-0.081	0.009
-407.311	-200.000	0.010	-0.050
-406.296	220.521	-0.158	-0.256
-405.282	69.636	0.069	-0.072
-404.267	-92.325	-0.396	-0.113
-403.252	-80.278	-0.121	0.041
-402.238	-120.067	0.218	-0.038
-401.223	-76.680	-0.201	0.071
-400.209	3.451	-0.196	0.144
-399.194	117.229	0.152	0.188
-398.179	-200.000	0.041	0.199
-397.165	-26.930	-0.120	0.071
-396.150	58.846	0.146	0.145
-395.136	-77.400	0.203	0.071
-394.121	5.601	-0.072	0.054
-393.106	767.365	0.056	0.154
-392.092	-92.183	-0.209	-0.060
-391.077	-54.918	-0.087	-0.040
-390.063	800.000	0.028	0.118
-389.048	-73.611	0.078	-0.029
-388.033	109.775	-0.115	0.139
-387.019	99.028	0.136	-0.159
-386.004	-200.000	0.024	-0.326
-384.990	-87.819	-0.374	0.114
-383.975	-30.172	0.096	-0.055
-382.960	-66.088	-0.168	-0.068
-381.946	89.484	-0.185	0.208
-380.931	800.000	0.053	-0.188
-379.917	-32.769	-0.244	0.137
-378.902	1.829	0.057	-0.042
-377.888	796.794	-0.124	0.344
-376.873	393.818	-0.100	0.211
-375.858	144.377	0.216	0.290
-374.844	-131.833	0.076	0.010
-373.829	175.938	-0.079	-0.115
-372.815	-7.781	0.259	-0.177
-371.800	-200.000	-0.008	-0.307
-370.785	85.006	-0.286	-0.316
-369.771	-140.335	-0.059	-0.006
-368.756	-131.454	0.414	0.055
-367.742	379.602	-0.052	-0.108
-366.727	69.488	0.278	-0.289
-365.712	800.000	0.095	0.329
-364.698	800.000	0.051	0.185
-363.683	-200.000	0.022	-0.177
-362.669	41.254	-0.191	0.174
-361.654	800.000	-0.080	-0.314
-360.639	65.983	-0.030	-0.031
-359.625	52.706	-0.079	-0.076
-358.610	-64.096	0.329	0.135
-357.596	-134.612	-0.189	0.023
-356.581	-200.000	0.009	0.272
-355.566	-116.699	0.053	-0.010
-354.552	14.927	-0.134	0.105
-353.537	-119.308	0.112	-0.020
-352.523	-108.662	-0.464	0.100
-351.508	12.564	-0.107	0.084
-350.493	138.959	0.247	-0.327
-349.479	-200.000	-0.046	0.249
-348.464	-200.000	0.019	0.260
-347.450	555.972	-0.055	-0.134
-346.435	142.342	-0.113	0.151
-345.420	-36.868	0.297	-0.161
-344.406	125.293	0.255	-0.324
-343.391	-76.663	0.129	-0.046
-342.377	800.000	-0.015	0.052
-341.362	-200.000	-0.002	0.347
-340.348	130.386	0.060	0.077
-339.333	800.000	0.029	-0.080
-338.318	-200.000	0.036	0.204
-337.304	9.958	-0.419	0.321
-336.289	396.427	-0.111	0.233
-335.275	-200.000	0.068	-0.345
-334.260	58.269	-0.075	-0.075
-333.245	-200.000	-0.072	0.464
-332.231	-200.000	0.010	0.156
-331.216	-145.323	0.083	-0.008
-330.202	800.000	-0.045	0.158
-329.187	-142.864	-0.087	0.009
-328.172	-126.193	-0.229	0.034
-327.158	-131.795	0.315	0.041
-326.143	800.000	0.063	-0.224
-325.129	60.972	-0.295	0.294
-324.114	27.579	0.186	-0.157
-323.099	-48.519	0.580	0.281
-322.085	589.609	-0.045	-0.112
-321.070	-90.637	-0.037	0.011
-320.056	487.375	-0.190	0.437
-319.041	132.826	0.092	0.119
-318.026	-85.844	0.387	0.121
-317.012	-174.724	0.476	0.014
-315.997	243.286	0.086	0.145
-314.983	-200.000	-0.039	0.250
-313.968	-112.120	0.272	0.055
-312.953	800.000	0.136	0.552
-311.939	-103.069	0.038	0.009
-310.924	197.468	0.051	-0.078
-309.910	-24.124	-0.223	-0.134
-308.895	-80.841	0.098	0.033
-307.880	-100.466	0.350	0.087
-306.866	112.426	0.380	-0.463
-305.851	-122.351	0.226	0.037
-304.837	-128.857	0.238	-0.034
-303.822	52.503	-0.405	0.389
-302.807	-200.000	0.023	0.593
-301.793	-116.326	0.197	-0.037
-300.778	723.352	0.084	-0.224
-299.764	266.377	0.086	0.152
-298.749	567.896	0.045	0.109
-297.735	-200.000	0.058	0.301
-296.720	32.582	0.215	-0.187
-295.705	-31.608	0.257	0.145
-294.691	-200.000	-0.004	0.067
-293.676	234.997	-0.169	0.280
-292.662	-32.725	-0.160	-0.090
-291.647	32.978	-0.144	0.125
-290.632	3.527	0.074	-0.054
-289.618	715.321	-0.055	0.147
-288.603	-76.864	0.399	0.140
-287.589	-36.746	-0.088	-0.047
-286.574	60.124	-0.085	-0.084
-285.559	-62.160	0.141	0.059
-284.545	-19.525	-0.031	0.019
-283.530	-200.000	-0.007	0.125
-282.516	-200.000	-0.033	0.186
-281.501	-200.000	-0.093	0.427
-280.486	-106.903	-0.253	0.056
-279.472	117.982	0.136	-0.168
-278.457	-200.000	0.135	0.596
-277.443	161.672	0.041	0.058
-276.428	-200.000	0.006	-0.432
-275.413	-39.816	0.323	0.169
-274.399	-200.000	0.038	0.246
-273.384	45.307	-0.148	0.137
-272.370	-200.000	-0.044	0.221
-271.355	-46.389	-0.203	-0.100
-270.340	21.451	0.281	0.229
-269.326	37.401	-0.119	-0.106
-268.311	104.879	-0.069	-0.081
-267.297	-54.461	0.449	0.205
-266.282	60.071	0.216	0.214
-265.267	-48.460	0.192	-0.093
-264.253	-137.738	0.156	0.018
-263.238	-59.405	-0.246	-0.106
-262.224	71.192	-0.133	0.138
-261.209	18.977	-0.244	0.196
-260.195	800.000	-0.052	-0.151
-259.180	-79.365	-0.263	-0.089
-258.165	-200.000	0.036	0.158
-257.151	-35.854	0.279	-0.151
-256.136	-66.588	0.158	-0.063
-255.122	-98.491	0.281	0.072
-254.107	144.402	0.191	0.256
-253.092	800.000	0.127	-0.375
-252.078	506.535	0.080	-0.187
-251.063	-142.770	0.422	0.041
-250.049	-200.000	-0.058	0.314
-249.034	-141.474	0.125	0.013
-248.019	800.000	0.024	0.104
-247.005	149.455	-0.195	0.265
-245.990	800.000	0.055	0.195
-244.976	-69.026	0.075	0.029
-243.961	12.243	0.107	-0.083
-242.946	800.000	-0.043	0.142
-241.932	-35.561	0.119	-0.065
-240.917	-200.000	0.012	0.179
-239.903	646.897	0.067	0.171
-238.888	197.584	-0.060	-0.092
-237.873	395.090	0.150	-0.313
-236.859	-23.936	0.294	0.177
-235.844	205.516	0.083	0.130
-234.830	-39.108	0.263	0.139
-233.815	-50.475	-0.049	0.023
-232.800	800.000	-0.039	-0.128
-231.786	-200.000	-0.071	-0.325
-230.771	-79.813	0.332	-0.112
-229.757	55.003	-0.184	-0.178
-228.742	-12.002	0.215	0.141
-227.727	-52.604	0.119	0.055
-226.713	-19.134	-0.142	-0.088
-225.698	-115.482	0.305	-0.058
-224.684	-54.784	0.176	-0.080
-223.669	12.509	-0.232	-0.180
-222.655	-184.046	0.118	0.002
-221.640	419.301	-0.173	0.371
-220.625	-5.411	-0.151	0.104
-219.611	69.228	-0.283	-0.291
-218.596	17.584	0.137	0.109
-217.582	246.213	0.040	-0.068
-216.567	13.005	-0.290	0.225
-215.552	55.905	0.072	0.070
-214.538	1.456	-0.210	0.152
-213.523	-79.551	-0.134	0.045
-212.509	-29.221	-0.169	0.097
-211.494	747.312	0.144	-0.390
-210.479	-200.000	0.037	0.327
-209.465	9.372	-0.161	0.122
-208.450	-178.259	0.097	0.002
-207.436	97.873	-0.216	0.249
-206.421	63.909	0.088	0.089
-205.406	-107.529	0.233	-0.051
-204.392	52.760	-0.084	0.080
-203.377	-171.965	0.363	-0.012
-202.363	-4.705	0.114	0.079
-201.348	-147.243	-0.128	0.011
-200.333	-106.094	-0.675	0.152
-199.319	151.760	0.093	-0.128
-198.304	-38.635	0.265	-0.140
-197.290	-30.000	-0.022	-0.013
-196.275	-200.000	-0.054	0.319
-195.260	382.228	-0.029	-0.059
-194.246	-144.117	0.354	-0.033
-193.231	800.000	-0.027	0.101
-192.217	113.790	-0.179	0.217
-191.202	-161.657	0.324	-0.017
-190.187	-200.000	-0.014	-0.376
-189.173	-134.727	0.227	0.028
-188.158	-49.230	0.308	-0.148
-187.144	-34.921	0.060	0.033
-186.129	-70.784	0.318	0.120
-185.114	258.430	-0.038	0.066
-184.100	-58.336	0.280	0.122
-183.085	-175.787	0.312	0.008
-182.071	-43.817	0.362	0.183
-181.056	800.000	-0.082	-0.309
-180.042	148.959	-0.255	-0.345
-179.027	155.444	-0.191	-0.264
-178.012	800.000	0.072	-0.211
-176.998	800.000	0.055	0.199
-175.983	-126.554	-0.270	-0.040
-174.969	2.999	-0.042	-0.031
-173.954	-148.740	0.192	0.016
-172.939	-200.000	-0.006	0.204
-171.925	6.567	-0.105	0.078
-170.910	-86.966	-0.162	-0.049
-169.896	-130.647	-0.274	-0.037
-168.881	15.009	-0.166	0.130
-167.866	83.841	-0.088	-0.096
-166.852	-200.000	-0.020	-0.118
-165.837	33.486	-0.070	-0.061
-164.823	-200.000	-0.009	0.073
-163.808	177.802	-0.213	0.311
-162.793	4.009	0.026	-0.019
-161.779	231.496	0.043	-0.070
-160.764	-200.000	0.023	-0.113
-159.750	-45.677	0.035	-0.017
-158.735	-200.000	0.054	-0.269
-157.720	177.875	-0.052	0.075
-156.706	-138.721	-0.255	0.028
-155.691	486.523	0.091	-0.208
-154.677	50.948	0.243	-0.230
-153.662	339.349	-0.098	-0.190
-152.647	-200.000	0.014	-0.174
-151.633	-200.000	-0.018	-0.320
-150.618	-73.711	0.104	0.038
-149.604	375.978	-0.065	-0.133
-148.589	-8.601	0.013	-0.009
-147.574	-48.877	0.080	0.039
-146.560	-200.000	-0.007	-0.153
-145.545	-122.068	-0.259	-0.043
-144.531	107.362	-0.054	0.065
-143.516	-200.000	0.004	0.203
-142.502	800.000	0.081	-0.240
-141.487	-94.535	-0.150	-0.041
-140.472	-3.862	0.268	-0.186
-139.458	37.301	0.315	0.279
-138.443	128.922	0.365	0.465
-137.429	38.651	0.211	0.188
-136.414	-147.463	0.203	-0.017
-135.399	-41.255	0.148	-0.076
-134.385	-200.000	0.000	-0.186
-133.370	-58.275	-0.377	0.164
-132.356	-11.408	0.167	0.110
-131.341	800.000	-0.072	-0.284
-130.326	800.000	-0.033	-0.111
-129.312	61.037	0.245	0.243
-128.297	-200.000	0.011	0.074
-127.283	82.670	0.201	0.218
-126.268	-192.634	-0.119	0.001
-125.253	-200.000	0.005	0.024
-124.239	-7.791	0.040	0.027
-123.224	-121.551	-0.040	0.007
-122.210	-200.000	-0.027	0.218
