DTS Sentinel unit serial number:	SN413079Multiplexer serial number:	ORYXHardware model number:	OX4-SRSoftware version number:	ORYX F/W v4.00 Oryx Data Collector v3.7.2.0data status	okinstallation	princeton_trtdifferential loss correction	single-endedforward channel	channel 1reverse channel	N/Adate	2019/09/18time	20:50:35forward acquisition time	60.00reverse acquisition time	0.00gamma	496.2192k internal	0.2339k external	0.2339temperature offset calibration	1.0026default loss term (dB/km)	0.3790temperature slope calibration	1.0000multiplexer offset coefficient	1.0000multiplexer slope coefficient	1.0000fibre end	0.00T internal ref (°C)	27.06T ext. ref 1 (°C)	0.94T ext. ref 2 (°C)	18.30length (m)	temperature (°C)	Stokes	anti-Stokes-747.200	-68.905	-0.206	0.080
-746.185	351.224	-0.205	0.407
-745.171	259.216	-0.080	-0.139
-744.156	409.942	0.232	0.493
-743.142	-44.000	0.103	0.052
-742.127	29.987	-0.187	0.160
-741.112	4.685	-0.306	-0.226
-740.098	749.804	-0.068	0.184
-739.083	51.492	0.308	0.293
-738.069	-51.767	-0.202	-0.095
-737.054	-114.777	0.187	0.036
-736.039	-90.290	-0.110	-0.032
-735.025	229.388	-0.157	0.258
-734.010	-173.489	-0.147	0.004
-732.996	-174.378	-0.309	0.009
-731.981	800.000	0.101	-0.295
-730.966	115.265	-0.123	0.151
-729.952	-119.099	-0.235	0.041
-728.937	-200.000	-0.033	-0.289
-727.923	277.572	-0.209	-0.374
-726.908	-191.910	0.134	-0.001
-725.894	-200.000	-0.048	-0.361
-724.879	-144.341	0.180	-0.017
-723.864	372.317	0.034	-0.069
-722.850	800.000	0.077	-0.324
-721.835	-111.093	0.089	0.018
-720.821	351.917	-0.102	0.202
-719.806	154.168	-0.103	-0.142
-718.791	535.646	0.053	0.126
-717.777	-93.307	0.117	-0.033
-716.762	-200.000	0.002	0.102
-715.748	-200.000	0.062	0.278
-714.733	58.694	0.192	0.189
-713.718	32.452	0.070	0.060
-712.704	-155.976	-0.166	0.011
-711.689	-27.653	0.145	0.085
-710.675	19.117	-0.300	-0.241
-709.660	221.141	-0.146	0.234
-708.645	7.686	-0.109	-0.082
-707.631	721.988	0.042	0.112
-706.616	33.540	-0.206	-0.180
-705.602	-116.784	0.149	0.027
-704.587	195.525	-0.110	-0.168
-703.572	-182.024	0.166	-0.003
-702.558	646.318	-0.086	-0.219
-701.543	5.557	0.233	-0.172
-700.529	-200.000	0.021	0.202
-699.514	535.947	-0.041	-0.097
-698.499	264.849	0.076	0.133
-697.485	-200.000	0.048	0.227
-696.470	-28.028	0.073	0.042
-695.456	20.710	-0.063	-0.051
-694.441	-108.914	0.154	0.033
-693.426	-67.640	-0.096	-0.038
-692.412	-1.755	-0.200	-0.141
-691.397	800.000	0.029	-0.107
-690.383	16.762	-0.231	0.183
-689.368	120.988	0.211	-0.263
-688.354	-110.033	-0.260	-0.054
-687.339	205.397	-0.190	-0.295
-686.324	144.594	-0.082	0.109
-685.310	-133.875	0.278	-0.035
-684.295	-93.550	-0.233	0.064
-683.281	751.288	0.133	-0.359
-682.266	86.333	0.178	-0.196
-681.251	800.000	0.118	-0.353
-680.237	-200.000	0.039	-0.317
-679.222	5.130	-0.141	0.104
-678.208	-11.832	-0.177	0.116
-677.193	800.000	0.052	-0.163
-676.178	-200.000	0.002	0.113
-675.164	-200.000	-0.014	0.232
-674.149	-78.180	0.251	-0.086
-673.135	-200.000	-0.031	-0.296
-672.120	345.895	-0.150	0.294
-671.105	-104.689	0.033	-0.008
-670.091	-62.454	-0.526	-0.219
-669.076	396.403	0.104	0.217
-668.062	15.560	0.118	0.093
-667.047	755.321	-0.127	0.343
-666.032	-200.000	0.025	-0.183
-665.018	374.546	-0.061	-0.125
-664.003	114.759	0.220	-0.268
-662.989	280.204	0.144	0.258
-661.974	-39.073	0.114	0.060
-660.959	-132.700	-0.305	-0.039
-659.945	-11.488	-0.379	-0.250
-658.930	-200.000	0.009	-0.089
-657.916	800.000	0.088	0.254
-656.901	61.565	0.158	-0.157
-655.886	-200.000	0.021	-0.153
-654.872	-23.369	0.161	-0.097
-653.857	800.000	-0.121	-0.409
-652.843	234.737	-0.073	-0.120
-651.828	-97.441	-0.256	0.067
-650.814	234.984	0.049	-0.081
-649.799	53.460	0.157	-0.150
-648.784	253.826	-0.091	-0.155
-647.770	-30.343	0.019	-0.011
-646.755	-120.108	0.208	-0.035
-645.741	-141.138	-0.347	0.035
-644.726	762.431	-0.034	0.091
-643.711	-63.835	-0.164	-0.067
-642.697	-42.729	0.067	-0.034
-641.682	-27.113	0.169	0.098
-640.668	800.000	-0.098	-0.324
-639.653	18.204	-0.110	0.087
-638.638	-200.000	-0.010	-0.256
-637.624	677.977	0.102	0.266
-636.609	-128.026	0.159	0.023
-635.595	162.418	-0.116	0.162
-634.580	264.157	-0.149	0.259
-633.565	-61.522	-0.059	-0.025
-632.551	-137.526	-0.139	0.016
-631.536	67.896	0.121	0.124
-630.522	-99.353	-0.216	0.054
-629.507	-66.875	0.272	0.107
-628.492	-80.833	-0.169	0.056
-627.478	800.000	0.145	-0.419
-626.463	800.000	-0.074	-0.253
-625.449	-200.000	-0.048	-0.244
-624.434	-54.194	-0.140	0.063
-623.419	-41.499	-0.138	0.071
-622.405	-15.370	0.155	-0.099
-621.390	-62.304	0.058	0.024
-620.376	-64.306	-0.082	-0.033
-619.361	86.523	-0.212	-0.233
-618.346	13.487	0.262	-0.203
-617.332	52.334	0.093	-0.089
-616.317	-126.471	-0.342	0.051
-615.303	206.406	0.276	0.429
-614.288	98.129	0.116	-0.133
-613.273	294.995	0.023	-0.042
-612.259	757.462	-0.098	-0.265
-611.244	77.713	0.216	0.229
-610.230	-18.900	-0.250	0.155
-609.215	287.109	-0.255	-0.460
-608.201	-19.742	-0.255	0.157
-607.186	-72.549	0.369	-0.136
-606.171	-200.000	-0.048	0.263
-605.157	459.744	0.109	0.243
-604.142	249.806	-0.120	0.204
-603.128	12.995	0.581	-0.448
-602.113	-200.000	-0.054	0.382
-601.098	-200.000	-0.042	-0.238
-600.084	-84.012	-0.171	0.054
-599.069	-91.357	-0.139	-0.040
-598.055	800.000	-0.042	-0.159
-597.040	-34.577	-0.266	-0.145
-596.025	3.812	-0.344	-0.250
-595.011	-37.473	-0.044	0.024
-593.996	10.245	0.095	-0.072
-592.982	-50.462	-0.080	0.038
-591.967	800.000	-0.093	0.260
-590.952	103.753	0.046	-0.054
-589.938	800.000	0.037	-0.140
-588.923	273.968	-0.115	0.203
-587.909	250.374	0.156	0.264
-586.894	156.929	-0.121	0.167
-585.879	294.982	0.132	-0.241
-584.865	508.657	0.034	-0.078
-583.850	-78.110	0.181	-0.062
-582.836	384.755	-0.149	-0.306
-581.821	-29.241	-0.212	0.121
-580.806	181.519	-0.202	-0.296
-579.792	-117.732	-0.141	0.025
-578.777	125.711	-0.153	0.192
-577.763	-148.516	0.104	0.008
-576.748	7.988	0.205	-0.153
-575.733	-200.000	-0.022	0.115
-574.719	709.808	-0.082	0.216
-573.704	800.000	-0.077	0.215
-572.690	127.153	0.116	-0.146
-571.675	197.466	0.186	-0.283
-570.661	-126.047	-0.148	0.022
-569.646	-150.319	-0.210	0.016
-568.631	800.000	0.017	-0.060
-567.617	473.916	0.083	0.187
-566.602	-158.601	-0.195	0.011
-565.588	-8.971	0.215	0.144
-564.573	-90.313	0.411	0.119
-563.558	96.611	-0.228	0.260
-562.544	-1.532	0.036	-0.025
-561.529	800.000	0.051	0.158
-560.515	92.874	0.121	0.136
-559.500	262.234	0.123	0.212
-558.485	-93.138	-0.243	0.067
-557.471	104.785	0.281	-0.330
-556.456	-10.578	-0.199	-0.131
-555.442	-49.278	0.228	0.108
-554.427	800.000	0.081	0.235
-553.412	110.645	0.125	0.149
-552.398	-200.000	0.007	-0.217
-551.383	-77.286	-0.059	-0.020
-550.369	-117.466	0.110	0.020
-549.354	-23.800	-0.066	-0.039
-548.339	-76.997	-0.651	0.226
-547.325	-140.550	-0.398	-0.041
-546.310	-51.570	-0.412	0.191
-545.296	-85.263	0.294	-0.091
-544.281	165.639	-0.083	-0.116
-543.266	800.000	-0.070	0.194
-542.252	-56.020	-0.296	0.131
-541.237	-38.762	-0.208	0.109
-540.223	157.781	0.062	-0.085
-539.208	-200.000	-0.053	0.370
-538.193	764.382	0.115	0.312
-537.179	307.661	-0.116	0.215
-536.164	-12.843	0.296	-0.192
-535.150	-84.670	0.048	-0.015
-534.135	39.311	0.258	-0.230
-533.121	453.498	-0.060	0.132
-532.106	-44.909	0.125	0.062
-531.091	743.236	0.084	0.226
-530.077	334.391	0.067	0.129
-529.062	71.838	-0.247	-0.256
-528.048	18.452	0.342	-0.272
-527.033	50.435	-0.216	-0.203
-526.018	-38.252	-0.243	0.128
-525.004	194.898	-0.072	-0.109
-523.989	2.129	-0.138	-0.099
-522.975	-6.513	0.188	-0.128
-521.960	-200.000	-0.008	-0.374
-520.945	532.281	0.075	-0.177
-519.931	-20.803	0.084	0.051
-518.916	5.282	-0.358	-0.262
-517.902	275.013	-0.065	-0.115
-516.887	72.490	0.208	-0.215
-515.872	506.477	-0.087	0.200
-514.858	-200.000	0.039	0.187
-513.843	92.786	0.248	0.278
-512.829	800.000	0.106	0.307
-511.814	800.000	0.043	0.143
-510.799	-107.163	0.226	-0.050
-509.785	-200.000	0.025	-0.201
-508.770	448.809	-0.033	0.073
-507.756	-200.000	-0.008	-0.114
-506.741	102.016	-0.211	0.245
-505.726	161.629	-0.027	0.037
-504.712	36.526	0.032	-0.028
-503.697	-200.000	0.021	0.194
-502.683	-61.650	-0.223	0.093
-501.668	12.698	-0.320	-0.246
-500.653	-69.083	-0.049	-0.019
-499.639	-164.419	-0.135	0.006
-498.624	147.798	0.092	0.123
-497.610	134.080	-0.150	-0.193
-496.595	580.086	-0.134	-0.327
-495.581	578.606	-0.034	-0.082
-494.566	-102.555	0.278	-0.066
-493.551	-27.794	0.025	-0.015
-492.537	-28.995	0.203	-0.116
-491.522	59.606	-0.072	0.071
-490.508	-41.475	-0.321	0.164
-489.493	85.743	0.281	-0.307
-488.478	218.694	-0.088	-0.139
-487.464	-145.338	0.292	0.026
-486.449	528.924	0.114	-0.268
-485.435	-146.115	0.150	0.013
-484.420	550.118	0.168	0.400
-483.405	437.031	-0.208	0.451
-482.391	15.997	0.293	-0.229
-481.376	242.694	0.130	0.216
-480.362	69.881	-0.148	0.152
-479.347	355.597	-0.101	-0.199
-478.332	800.000	-0.079	-0.279
-477.318	497.937	0.062	-0.142
-476.303	-155.887	0.125	-0.008
-475.289	-196.003	-0.271	-0.002
-474.274	-33.120	-0.091	0.050
-473.259	12.836	-0.186	0.143
-472.245	-49.625	-0.253	0.119
-471.230	-200.000	-0.010	-0.211
-470.216	-93.750	-0.154	0.042
-469.201	-200.000	-0.000	0.150
-468.186	-74.476	0.300	0.107
-467.172	153.504	-0.161	-0.218
-466.157	-200.000	-0.005	-0.281
-465.143	189.755	-0.170	-0.253
-464.128	290.048	0.098	0.176
-463.113	148.286	0.089	0.119
-462.099	-0.218	-0.157	0.111
-461.084	800.000	0.087	-0.245
-460.070	-35.981	0.265	0.142
-459.055	-130.529	0.355	0.048
-458.040	-134.828	-0.059	0.007
-457.026	28.884	-0.231	0.194
-456.011	88.917	-0.033	0.036
-454.997	-68.754	-0.176	0.068
-453.982	-61.245	0.123	-0.051
-452.968	366.159	-0.165	-0.329
-451.953	145.511	-0.311	-0.413
-450.938	800.000	0.117	0.485
-449.924	-130.937	-0.166	-0.022
-448.909	660.915	0.067	-0.171
-447.895	202.129	0.071	0.108
-446.880	24.515	0.289	0.237
-445.865	-200.000	0.026	0.471
-444.851	-200.000	-0.021	-0.189
-443.836	206.073	0.028	0.043
-442.822	-163.117	0.109	0.005
-441.807	149.882	-0.104	0.140
-440.792	-15.306	0.124	-0.079
-439.778	-200.000	-0.012	-0.084
-438.763	-200.000	-0.008	0.146
-437.749	-200.000	0.014	0.083
-436.734	-6.276	0.259	0.175
-435.719	-66.643	-0.258	0.101
-434.705	-200.000	0.048	0.276
-433.690	545.809	-0.087	-0.205
-432.676	-132.697	-0.172	-0.022
-431.661	436.670	0.117	0.251
-430.646	9.732	0.127	0.096
-429.632	106.228	-0.223	-0.262
-428.617	227.646	-0.065	0.105
-427.603	-120.423	-0.189	-0.032
-426.588	-200.000	-0.030	0.158
-425.573	-200.000	0.003	-0.346
-424.559	319.973	-0.177	0.333
-423.544	-93.342	0.248	-0.068
-422.530	800.000	-0.063	0.182
-421.515	-200.000	-0.055	0.338
-420.500	-200.000	0.032	0.409
-419.486	23.637	0.219	0.178
-418.471	-42.022	0.252	-0.128
-417.457	-119.924	-0.303	0.051
-416.442	19.683	0.160	-0.128
-415.428	-86.337	0.051	0.015
-414.413	770.272	-0.036	-0.097
-413.398	-7.566	0.384	0.257
-412.384	453.020	0.078	0.170
-411.369	28.981	0.225	-0.189
-410.355	-200.000	0.012	0.256
-409.340	341.652	0.018	-0.034
-408.325	694.914	-0.152	0.395
-407.311	63.509	0.041	-0.040
-406.296	197.667	0.139	0.210
-405.282	433.597	-0.068	0.147
-404.267	211.740	0.090	0.140
-403.252	800.000	-0.025	-0.071
-402.238	686.421	-0.102	-0.264
-401.223	-84.920	0.162	0.050
-400.209	49.958	-0.106	-0.099
-399.194	31.121	-0.029	0.024
-398.179	-200.000	-0.030	-0.193
-397.165	3.729	0.236	0.171
-396.150	8.402	0.323	0.241
-395.136	-38.644	0.350	0.183
-394.121	-89.199	-0.311	0.091
-393.106	-59.397	-0.261	-0.111
-392.092	-26.747	0.250	-0.145
-391.077	213.421	0.153	-0.239
-390.063	-34.428	0.157	0.085
-389.048	188.922	0.238	0.352
-388.033	187.994	0.076	-0.112
-387.019	12.822	0.201	-0.154
-386.004	-177.125	-0.194	0.005
-384.990	98.395	-0.161	0.184
-383.975	176.861	0.312	-0.448
-382.960	800.000	0.133	-0.405
-381.946	43.756	0.059	0.053
-380.931	-200.000	0.009	-0.058
-379.917	-158.833	-0.289	-0.016
-378.902	34.129	0.233	-0.201
-377.888	349.371	-0.204	-0.399
-376.873	59.826	0.018	-0.017
-375.858	-23.974	0.118	0.070
-374.844	-200.000	-0.003	-0.127
-373.829	226.040	0.045	0.072
-372.815	-200.000	0.086	-0.471
-371.800	153.765	-0.143	-0.194
-370.785	-0.021	0.132	-0.093
-369.771	-56.728	-0.041	-0.018
-368.756	-200.000	0.062	-0.338
-367.742	800.000	-0.079	-0.279
-366.727	-111.140	0.101	0.020
-365.712	71.800	0.148	0.152
-364.698	-39.801	-0.153	0.079
-363.683	129.518	-0.207	0.262
-362.669	-54.605	0.172	-0.077
-361.654	390.805	0.103	-0.212
-360.639	-23.499	0.055	0.032
-359.625	-151.686	0.079	-0.006
-358.610	-200.000	0.053	0.232
-357.596	428.590	-0.089	0.190
-356.581	-185.013	0.135	-0.002
-355.566	78.128	0.022	-0.023
-354.552	-170.154	0.281	-0.010
-353.537	430.080	0.150	-0.322
-352.523	65.033	0.056	-0.056
-351.508	15.654	-0.122	-0.095
-350.493	-58.385	0.192	-0.082
-349.479	-163.038	-0.071	-0.003
-348.464	800.000	-0.072	0.292
-347.450	-191.685	0.185	0.002
-346.435	91.503	-0.113	0.126
-345.420	-200.000	0.012	0.116
-344.406	800.000	0.024	0.067
-343.391	800.000	-0.083	-0.254
-342.377	-96.518	0.103	-0.027
-341.362	-200.000	0.011	0.263
-340.348	123.650	-0.072	-0.089
-339.333	37.303	-0.095	-0.083
-338.318	3.541	-0.162	-0.116
-337.304	-60.014	-0.131	-0.055
-336.289	-200.000	0.003	0.044
-335.275	-24.982	0.172	-0.101
-334.260	33.092	0.106	0.091
-333.245	-52.395	-0.431	-0.197
-332.231	230.342	0.251	-0.405
-331.216	36.530	-0.345	0.301
-330.202	118.202	0.110	0.134
-329.187	-155.997	0.193	0.012
-328.172	88.892	0.354	0.389
-327.158	800.000	-0.044	-0.174
-326.143	32.159	-0.212	-0.181
-325.129	646.203	-0.076	-0.192
-324.114	90.837	0.248	-0.275
-323.099	24.806	0.128	0.105
-322.085	234.942	-0.098	-0.160
-321.070	-200.000	0.016	-0.255
-320.056	-200.000	-0.040	-0.346
-319.041	-200.000	0.046	0.365
-318.026	-200.000	0.014	0.138
-317.012	-200.000	0.015	0.122
-315.997	193.934	-0.178	-0.266
-314.983	-200.000	-0.011	-0.286
-313.968	-197.831	0.346	0.002
-312.953	800.000	-0.093	-0.278
-311.939	800.000	0.100	-0.377
-310.924	400.407	-0.063	0.129
-309.910	800.000	-0.130	0.445
-308.895	-200.000	-0.011	0.146
-307.880	800.000	-0.026	0.072
-306.866	-43.729	0.333	0.165
-305.851	-200.000	0.010	0.228
-304.837	-200.000	0.047	0.224
-303.822	-42.563	0.094	0.047
-302.807	40.497	-0.028	0.025
-301.793	256.804	0.180	-0.305
-300.778	649.220	-0.149	-0.377
-299.764	-200.000	-0.001	0.037
-298.749	465.761	-0.048	-0.107
-297.735	87.049	0.066	0.072
-296.720	-200.000	0.040	-0.244
-295.705	-152.727	0.207	0.015
-294.691	-111.324	0.156	0.031
-293.676	534.903	-0.164	-0.382
-292.662	106.660	-0.048	0.056
-291.647	-26.611	-0.164	-0.095
-290.632	143.873	-0.108	0.142
-289.618	84.641	0.098	-0.106
-288.603	-104.056	-0.188	-0.043
-287.589	-11.103	-0.175	-0.114
-286.574	-44.112	0.031	-0.015
-285.559	60.508	0.159	0.155
-284.545	-200.000	-0.000	0.010
-283.530	800.000	0.085	0.277
-282.516	-200.000	-0.027	-0.242
-281.501	509.753	0.059	0.136
-280.486	800.000	-0.043	-0.163
-279.472	-200.000	-0.008	0.180
-278.457	-200.000	0.081	0.403
-277.443	-117.175	-0.138	-0.025
-276.428	240.517	-0.212	0.348
-275.413	116.210	0.199	-0.240
-274.399	189.135	-0.086	-0.127
-273.384	-147.250	0.145	0.012
-272.370	707.587	-0.078	0.203
-271.355	20.745	0.180	-0.144
-270.340	-200.000	0.042	-0.205
-269.326	-149.202	-0.230	-0.018
-268.311	-132.575	0.163	-0.021
-267.297	242.607	0.129	-0.213
-266.282	78.576	-0.168	0.176
-265.267	74.253	0.255	-0.263
-264.253	26.211	0.101	0.083
-263.238	756.822	-0.148	0.395
-262.224	-200.000	0.165	0.000
-261.209	1.257	-0.212	0.150
-260.195	-68.816	0.050	0.019
-259.180	8.812	-0.444	0.329
-258.165	-112.796	0.253	-0.049
-257.151	200.988	0.202	-0.306
-256.136	-40.416	-0.134	-0.068
-255.122	43.515	-0.133	0.120
-254.107	8.143	0.179	-0.132
-253.092	-112.940	-0.228	-0.044
-252.078	-106.781	0.187	-0.041
-251.063	-98.947	-0.222	0.055
-250.049	-51.762	0.196	0.090
-249.034	-16.958	-0.226	-0.140
-248.019	-200.000	0.040	0.366
-247.005	-15.475	-0.026	0.017
-245.990	783.172	0.168	0.452
-244.976	656.487	-0.165	0.416
-243.961	-55.016	-0.281	0.125
-242.946	-83.001	-0.077	0.024
-241.932	-200.000	0.007	0.178
-240.917	-181.928	0.380	0.007
-239.903	-94.511	0.141	0.038
-238.888	-200.000	-0.025	-0.165
-237.873	-16.560	-0.158	0.099
-236.859	212.172	-0.212	-0.328
-235.844	576.147	0.110	-0.265
-234.830	533.710	0.060	0.141
-233.815	800.000	-0.111	-0.346
-232.800	800.000	-0.097	-0.321
-231.786	162.222	-0.192	-0.265
-230.771	2.961	-0.114	-0.082
-229.757	74.024	0.108	-0.112
-228.742	-191.629	0.366	-0.004
-227.727	-125.425	0.353	0.053
-226.713	87.373	-0.039	-0.043
-225.698	-200.000	0.061	-0.451
-224.684	25.194	-0.154	0.126
-223.669	-23.781	-0.175	0.103
-222.655	31.643	0.116	0.098
-221.640	102.520	0.192	0.221
-220.625	-149.131	-0.338	-0.027
-219.611	-53.122	0.181	0.082
-218.596	-50.591	0.168	0.078
-217.582	19.162	-0.089	0.070
-216.567	-200.000	0.004	-0.185
-215.552	-121.736	-0.061	-0.010
-214.538	174.069	0.156	0.222
-213.523	-101.909	-0.171	-0.040
-212.509	-110.637	0.267	0.054
-211.494	9.277	0.218	0.162
-210.479	145.286	-0.194	0.255
-209.465	216.599	-0.092	0.144
-208.450	800.000	-0.009	0.030
-207.436	14.008	0.068	0.052
-206.421	-108.780	-0.263	-0.055
-205.406	-43.710	-0.126	-0.062
-204.392	-200.000	0.019	-0.343
-203.377	-200.000	0.203	-0.001
-202.363	800.000	0.021	-0.063
-201.348	-39.492	-0.149	0.077
-200.333	-120.044	-0.256	0.043
-199.319	-167.242	-0.190	-0.008
-198.304	-43.252	0.257	-0.128
-197.290	34.874	-0.137	-0.118
-196.275	-110.055	-0.117	-0.024
-195.260	-140.152	-0.301	0.031
-194.246	800.000	0.019	0.079
-193.231	-158.057	0.235	0.014
-192.217	-200.000	-0.016	0.162
-191.202	-168.528	0.124	0.005
-190.187	800.000	0.087	-0.292
-189.173	-50.063	0.513	0.238
-188.158	-107.218	-0.137	0.030
-187.144	-122.161	0.069	0.011
-186.129	3.286	0.209	-0.150
-185.114	-164.568	-0.153	-0.007
-184.100	-135.023	-0.316	-0.037
-183.085	-115.225	-0.304	-0.056
-182.071	155.477	0.030	0.041
-181.056	-65.356	-0.098	-0.039
-180.042	226.938	-0.158	0.252
-179.027	-155.804	0.100	0.006
-178.012	294.641	0.083	0.149
-176.998	-186.295	-0.270	-0.004
-175.983	326.560	-0.024	0.044
-174.969	29.198	-0.030	0.025
-173.954	-71.020	0.072	0.026
-172.939	304.880	0.040	-0.072
-171.925	800.000	0.099	-0.313
-170.910	-135.923	-0.333	0.038
-169.896	-200.000	0.010	0.109
-168.881	232.413	-0.217	-0.350
-167.866	-200.000	-0.004	0.218
-166.852	-38.894	0.128	0.066
-165.837	-99.156	-0.126	0.031
-164.823	446.975	0.050	-0.108
-163.808	-3.860	0.188	-0.128
-162.793	92.959	-0.088	0.098
-161.779	-51.255	-0.094	-0.043
-160.764	-200.000	-0.014	-0.154
-159.750	-136.816	-0.291	0.033
-158.735	800.000	0.033	-0.091
-157.720	-88.787	0.189	0.055
-156.706	71.015	0.258	0.262
-155.691	531.954	0.004	-0.010
-154.677	-21.047	0.196	-0.118
-153.662	-196.063	-0.170	0.001
-152.647	752.031	-0.005	0.013
-151.633	800.000	-0.066	0.214
-150.618	304.808	-0.222	0.405
-149.604	-9.029	-0.476	0.312
-148.589	-200.000	-0.286	-0.000
-147.574	-2.300	0.299	-0.205
-146.560	30.623	0.195	-0.164
-145.545	46.803	-0.209	-0.190
-144.531	150.024	0.212	-0.281
-143.516	-151.805	0.336	0.024
-142.502	-121.146	0.227	-0.037
-141.487	27.369	-0.346	0.285
-140.472	-37.616	0.237	0.124
-139.458	156.814	0.107	0.145
-138.443	-200.000	0.051	0.370
-137.429	121.497	0.067	0.082
-136.414	220.202	0.136	0.214
-135.399	-200.000	-0.016	-0.109
-134.385	-77.115	-0.130	-0.044
-133.370	107.027	-0.086	-0.101
-132.356	-180.589	0.271	-0.005
-131.341	49.034	0.229	-0.211
-130.326	-200.000	-0.037	-0.256
-129.312	800.000	-0.071	-0.210
-128.297	460.661	-0.194	-0.423
-127.283	23.764	-0.199	0.160
-126.268	-200.000	-0.022	0.583
-125.253	-79.991	-0.293	-0.096
-124.239	-142.864	0.149	0.014
-123.224	6.259	-0.190	-0.138
-122.210	730.438	-0.138	0.360
-121.195	-70.894	-0.146	0.054
-120.180	-13.943	0.055	0.035
