DTS Sentinel unit serial number:	SN413079Multiplexer serial number:	ORYXHardware model number:	OX4-SRSoftware version number:	ORYX F/W v4.00 Oryx Data Collector v3.7.2.0data status	okinstallation	princeton_trtdifferential loss correction	single-endedforward channel	channel 1reverse channel	N/Adate	2019/09/18time	01:30:35forward acquisition time	60.00reverse acquisition time	0.00gamma	496.2192k internal	0.2341k external	0.2341temperature offset calibration	0.9977default loss term (dB/km)	0.3790temperature slope calibration	1.0000multiplexer offset coefficient	1.0000multiplexer slope coefficient	1.0000fibre end	0.00T internal ref (°C)	23.11T ext. ref 1 (°C)	0.17T ext. ref 2 (°C)	16.78length (m)	temperature (°C)	Stokes	anti-Stokes-747.200	800.000	0.013	-0.039
-746.185	-140.184	-0.265	0.028
-745.171	216.298	-0.212	0.337
-744.156	483.011	0.030	0.069
-743.142	-200.000	-0.004	-0.226
-742.127	-171.636	-0.130	0.004
-741.112	289.672	-0.041	0.075
-740.098	-21.718	-0.170	0.103
-739.083	47.999	-0.142	0.133
-738.069	163.736	0.178	0.250
-737.054	34.535	-0.120	0.105
-736.039	800.000	-0.068	-0.227
-735.025	800.000	0.079	-0.281
-734.010	306.204	-0.150	-0.280
-732.996	-76.809	-0.295	0.103
-731.981	302.363	0.062	-0.114
-730.966	800.000	-0.010	0.029
-729.952	44.513	-0.113	0.104
-728.937	110.673	-0.059	-0.071
-727.923	7.052	-0.332	-0.248
-726.908	-200.000	-0.014	-0.193
-725.894	-61.891	-0.110	-0.046
-724.879	-78.006	-0.182	-0.063
-723.864	-142.950	-0.196	0.019
-722.850	-107.216	-0.178	0.039
-721.835	-98.640	0.146	0.037
-720.821	60.375	-0.094	0.093
-719.806	-130.385	-0.484	-0.066
-718.791	-143.809	-0.154	-0.015
-717.777	530.304	0.042	-0.100
-716.762	-21.375	0.059	0.036
-715.748	800.000	0.020	-0.086
-714.733	-200.000	0.018	-0.134
-713.718	21.623	0.107	0.087
-712.704	-22.366	0.296	-0.179
-711.689	-200.000	-0.063	-0.354
-710.675	164.714	0.120	-0.169
-709.660	-30.159	0.167	0.095
-708.645	0.187	0.341	0.243
-707.631	-32.999	-0.349	0.194
-706.616	-200.000	0.014	-0.135
-705.602	-116.688	-0.090	0.016
-704.587	-34.775	0.111	-0.061
-703.572	-20.191	-0.226	0.139
-702.558	123.569	-0.055	-0.069
-701.543	-93.154	0.240	-0.067
-700.529	154.537	0.190	0.261
-699.514	800.000	0.082	0.290
-698.499	546.841	-0.031	-0.073
-697.485	262.368	-0.222	-0.386
-696.470	400.644	-0.085	0.179
-695.456	189.213	0.127	0.190
-694.441	-166.745	0.240	0.010
-693.426	49.347	-0.286	-0.269
-692.412	124.998	-0.097	-0.122
-691.397	101.771	0.162	-0.189
-690.383	657.326	-0.070	-0.181
-689.368	-97.932	-0.168	0.043
-688.354	-10.351	0.369	0.244
-687.339	-79.071	0.020	-0.007
-686.324	-106.812	-0.111	-0.025
-685.310	-72.469	-0.200	0.074
-684.295	-34.255	0.319	-0.175
-683.281	-113.064	-0.162	-0.032
-682.266	-200.000	0.042	0.242
-681.251	163.726	0.175	-0.246
-680.237	255.091	0.142	0.243
-679.222	-200.000	0.017	0.256
-678.208	204.332	-0.083	-0.128
-677.193	200.103	-0.076	0.116
-676.178	78.425	-0.074	-0.079
-675.164	-78.317	0.294	0.101
-674.149	-137.368	-0.129	0.015
-673.135	-67.252	-0.131	-0.051
-672.120	800.000	0.048	-0.180
-671.105	101.484	0.179	0.209
-670.091	68.626	-0.120	0.123
-669.076	-76.300	-0.145	-0.051
-668.062	126.123	0.169	-0.213
-667.047	-200.000	-0.001	-0.209
-666.032	-200.000	-0.005	-0.133
-665.018	-68.019	0.232	0.091
-664.003	3.889	0.066	-0.048
-662.989	-200.000	-0.019	-0.441
-661.974	43.335	-0.245	-0.223
-660.959	-82.556	0.249	-0.081
-659.945	34.093	-0.107	0.093
-658.930	-101.866	-0.312	-0.075
-657.916	-74.807	0.542	-0.194
-656.901	-173.021	-0.510	0.016
-655.886	143.307	0.162	0.215
-654.872	-147.988	-0.122	-0.010
-653.857	175.101	-0.025	0.036
-652.843	-200.000	0.036	-0.316
-651.828	-200.000	0.310	-0.000
-650.814	-107.584	0.137	0.030
-649.799	-26.921	0.308	0.180
-648.784	800.000	-0.044	0.161
-647.770	-200.000	-0.031	0.460
-646.755	56.684	-0.201	-0.196
-645.741	4.244	-0.156	-0.114
-644.726	-34.881	-0.393	0.214
-643.711	115.805	0.216	0.263
-642.697	-73.464	-0.236	0.086
-641.682	800.000	-0.053	0.222
-640.668	-200.000	-0.250	0.001
-639.653	-200.000	0.014	0.066
-638.638	353.198	-0.141	-0.279
-637.624	14.363	0.164	-0.128
-636.609	-130.448	0.065	0.009
-635.595	800.000	-0.132	-0.384
-634.580	-200.000	0.007	0.054
-633.565	-200.000	-0.007	-0.037
-632.551	-73.099	0.102	0.037
-631.536	800.000	-0.044	-0.124
-630.522	-182.615	0.146	0.003
-629.507	-14.974	-0.300	-0.192
-628.492	-200.000	-0.074	-0.327
-627.478	-62.639	-0.086	-0.036
-626.463	67.611	0.255	0.259
-625.449	156.641	0.042	0.058
-624.434	-200.000	0.018	0.234
-623.419	-169.519	0.242	-0.009
-622.405	546.719	0.025	0.059
-621.390	800.000	-0.038	0.157
-620.376	-10.408	0.132	-0.087
-619.361	198.201	-0.194	-0.296
-618.346	266.347	0.160	0.278
-617.332	487.306	-0.139	0.316
-616.317	-129.477	-0.200	-0.028
-615.303	83.787	-0.057	-0.062
-614.288	107.294	-0.206	0.244
-613.273	-200.000	0.209	0.000
-612.259	-52.405	0.253	0.117
-611.244	-200.000	0.003	-0.334
-610.230	37.387	-0.182	-0.161
-609.215	-92.238	-0.141	0.040
-608.201	-82.439	-0.260	-0.084
-607.186	-31.960	0.123	-0.068
-606.171	11.179	-0.111	0.085
-605.157	800.000	-0.089	-0.271
-604.142	39.660	0.114	-0.102
-603.128	-200.000	-0.009	-0.402
-602.113	303.444	-0.156	0.288
-601.098	-200.000	-0.005	0.175
-600.084	695.834	0.056	0.145
-599.069	-91.221	0.218	0.062
-598.055	800.000	-0.056	0.237
-597.040	800.000	-0.033	0.138
-596.025	383.528	0.055	0.114
-595.011	234.899	0.067	0.110
-593.996	800.000	-0.022	0.074
-592.982	-65.383	0.227	0.091
-591.967	-79.211	-0.105	-0.035
-590.952	800.000	-0.092	-0.351
-589.938	71.434	0.277	0.286
-588.923	59.412	-0.179	-0.176
-587.909	-159.222	-0.177	0.010
-586.894	800.000	0.057	-0.226
-585.879	40.709	-0.159	0.143
-584.865	146.696	0.203	0.272
-583.850	613.910	-0.065	0.163
-582.836	42.195	0.188	-0.170
-581.821	-200.000	-0.007	-0.235
-580.806	-200.000	-0.051	-0.714
-579.792	48.433	-0.054	0.050
-578.777	20.404	-0.243	-0.195
-577.763	-48.515	-0.168	0.081
-576.748	103.312	0.094	0.110
-575.733	-4.243	-0.375	-0.259
-574.719	339.775	0.061	0.119
-573.704	-98.265	0.213	-0.054
-572.690	-123.825	0.386	-0.061
-571.675	800.000	0.028	0.111
-570.661	-200.000	0.003	0.199
-569.646	459.088	-0.121	-0.268
-568.631	370.163	0.039	-0.079
-567.617	268.096	-0.102	0.178
-566.602	234.180	-0.056	0.091
-565.588	142.201	0.122	-0.161
-564.573	536.573	-0.022	-0.052
-563.558	642.658	0.042	-0.106
-562.544	-200.000	-0.029	0.292
-561.529	357.957	0.139	0.276
-560.515	50.831	0.105	0.099
-559.500	49.207	0.178	0.166
-558.485	-5.529	0.160	0.109
-557.471	-106.283	-0.109	0.024
-556.456	-17.998	0.242	-0.151
-555.442	-133.159	0.165	-0.021
-554.427	115.561	-0.085	0.103
-553.412	423.200	-0.052	0.111
-552.398	7.445	-0.145	-0.108
-551.383	114.387	-0.091	0.110
-550.369	-25.243	-0.320	0.188
-549.354	-50.712	-0.048	0.022
-548.339	254.645	-0.240	0.408
-547.325	800.000	0.036	0.111
-546.310	174.961	-0.054	-0.078
-545.296	159.416	-0.216	0.299
-544.281	-200.000	-0.022	-0.107
-543.266	-7.530	0.138	0.093
-542.252	-30.339	-0.162	0.092
-541.237	283.089	-0.106	0.190
-540.223	800.000	0.098	-0.279
-539.208	132.874	-0.313	-0.401
-538.193	326.216	0.058	-0.110
-537.179	9.639	-0.110	-0.083
-536.164	77.723	0.078	-0.082
-535.150	-59.549	0.132	0.056
-534.135	-110.156	0.208	-0.043
-533.121	95.612	0.112	0.127
-532.106	800.000	0.057	0.231
-531.091	-51.824	-0.313	0.145
-530.077	128.089	-0.113	-0.143
-529.062	-67.530	0.322	-0.126
-528.048	98.289	-0.087	-0.099
-527.033	309.959	0.239	-0.444
-526.018	800.000	-0.109	-0.338
-525.004	800.000	0.138	0.396
-523.989	603.310	0.080	-0.197
-522.975	18.443	0.079	0.063
-521.960	385.343	-0.055	-0.113
-520.945	70.639	-0.174	-0.179
-519.931	38.224	0.162	-0.143
-518.916	223.800	-0.095	0.152
-517.902	800.000	0.110	0.362
-516.887	624.007	0.055	-0.139
-515.872	-200.000	0.008	0.212
-514.858	430.882	0.157	-0.337
-513.843	-70.546	-0.054	0.020
-512.829	-20.676	-0.277	0.169
-511.814	135.193	-0.094	0.121
-510.799	-98.494	-0.309	-0.079
-509.785	54.169	-0.117	-0.112
-508.770	800.000	0.064	0.180
-507.756	238.598	-0.142	0.234
-506.741	800.000	-0.077	-0.295
-505.726	-180.506	0.204	-0.004
-504.712	18.654	0.413	-0.328
-503.697	-146.996	0.147	-0.013
-502.683	77.426	-0.173	0.183
-501.668	-200.000	-0.050	-0.399
-500.653	-199.872	-0.207	0.001
-499.639	-156.784	0.177	0.011
-498.624	57.852	-0.162	0.158
-497.610	445.205	0.172	0.374
-496.595	264.473	0.204	0.352
-495.581	242.753	0.110	-0.182
-494.566	189.522	-0.056	-0.084
-493.551	662.297	0.116	0.298
-492.537	77.691	0.095	-0.101
-491.522	-79.470	0.198	-0.066
-490.508	215.551	-0.068	-0.107
-489.493	-37.432	0.243	-0.129
-488.478	-200.000	-0.060	-0.386
-487.464	-108.989	-0.350	0.074
-486.449	-11.199	-0.208	-0.136
-485.435	31.469	-0.148	-0.126
-484.420	-80.015	-0.152	-0.051
-483.405	-20.098	0.128	0.078
-482.391	46.674	-0.157	-0.144
-481.376	-41.049	0.054	0.028
-480.362	-135.814	0.204	0.024
-479.347	-200.000	0.043	-0.245
-478.332	68.380	0.049	0.050
-477.318	-200.000	0.003	0.113
-476.303	42.020	0.133	0.120
-475.289	-33.700	0.065	0.035
-474.274	-200.000	-0.041	-0.554
-473.259	-104.837	-0.173	0.039
-472.245	50.145	-0.117	-0.110
-471.230	54.822	0.191	0.183
-470.216	-52.770	0.167	-0.076
-469.201	800.000	-0.050	-0.196
-468.186	-89.397	0.331	0.096
-467.172	800.000	-0.079	-0.237
-466.157	58.049	-0.236	-0.229
-465.143	247.644	0.101	0.168
-464.128	-92.649	-0.160	0.045
-463.113	450.208	-0.053	0.116
-462.099	168.541	0.107	-0.151
-461.084	19.142	-0.229	0.182
-460.070	-158.811	-0.157	-0.009
-459.055	-104.777	0.147	0.033
-458.040	439.042	-0.176	-0.380
-457.026	800.000	-0.032	-0.090
-456.011	-188.338	-0.143	-0.002
-454.997	-4.860	0.110	0.075
-453.982	521.882	-0.034	0.080
-452.968	563.102	-0.098	0.235
-451.953	117.170	0.203	0.247
-450.938	-159.677	0.101	-0.006
-449.924	-182.737	0.339	0.006
-448.909	171.252	-0.071	0.100
-447.895	45.138	0.161	-0.147
-446.880	-53.027	-0.273	-0.125
-445.865	314.276	-0.016	0.031
-444.851	17.599	-0.115	0.091
-443.836	-200.000	0.009	0.232
-442.822	-59.618	-0.368	0.156
-441.807	14.368	0.039	-0.030
-440.792	143.651	0.166	-0.219
-439.778	-116.276	0.253	0.046
-438.763	24.024	-0.128	-0.105
-437.749	409.603	0.178	0.373
-436.734	800.000	-0.040	0.162
-435.719	34.768	-0.075	-0.065
-434.705	65.381	0.255	-0.256
-433.690	-96.859	0.285	0.074
-432.676	130.313	-0.065	-0.082
-431.661	38.903	-0.387	0.342
-430.646	-200.000	-0.050	0.243
-429.632	-96.726	0.283	-0.074
-428.617	15.336	-0.255	0.198
-427.603	18.025	0.277	-0.218
-426.588	-200.000	0.025	-0.154
-425.573	40.159	0.230	-0.204
-424.559	672.086	-0.132	0.338
-423.544	-200.000	-0.011	0.285
-422.530	-190.809	0.478	0.005
-421.515	93.834	0.252	0.283
-420.500	-200.000	0.021	0.121
-419.486	246.194	-0.104	-0.174
-418.471	-200.000	-0.070	-0.355
-417.457	-183.365	0.198	-0.003
-416.442	800.000	-0.096	0.281
-415.428	219.742	0.247	0.391
-414.413	-128.059	-0.252	-0.036
-413.398	-124.843	0.314	-0.048
-412.384	-21.831	0.276	0.166
-411.369	-200.000	0.038	-0.211
-410.355	-62.187	-0.285	-0.117
-409.340	-30.078	0.128	-0.072
-408.325	-200.000	-0.004	-0.292
-407.311	33.807	0.157	-0.135
-406.296	61.418	0.104	0.102
-405.282	-200.000	0.005	0.085
-404.267	-91.748	0.258	0.072
-403.252	-131.443	-0.237	-0.031
-402.238	-71.233	0.139	0.051
-401.223	473.806	-0.116	-0.258
-400.209	507.101	0.070	0.160
-399.194	-161.528	-0.134	0.007
-398.179	166.460	-0.254	0.356
-397.165	-41.630	-0.135	0.069
-396.150	-100.317	-0.044	-0.011
-395.136	-58.307	0.306	-0.132
-394.121	-200.000	-0.020	-0.287
-393.106	87.424	-0.215	-0.235
-392.092	63.225	-0.155	0.153
-391.077	14.355	0.237	0.183
-390.063	204.706	0.095	-0.145
-389.048	-104.108	-0.069	-0.016
-388.033	800.000	-0.142	-0.418
-387.019	-200.000	-0.007	0.123
-386.004	800.000	0.084	0.236
-384.990	714.600	0.074	0.195
-383.975	-90.701	-0.040	0.012
-382.960	-54.203	-0.144	0.065
-381.946	-200.000	0.004	-0.083
-380.931	-165.012	0.138	-0.006
-379.917	99.546	-0.149	-0.170
-378.902	263.432	0.120	0.205
-377.888	662.211	-0.083	-0.211
-376.873	-109.987	0.325	0.067
-375.858	-200.000	-0.041	0.192
-374.844	-72.973	-0.241	-0.087
-373.829	-156.619	-0.228	-0.014
-372.815	800.000	0.080	0.273
-371.800	153.747	-0.113	-0.153
-370.785	19.668	-0.326	-0.259
-369.771	-75.698	-0.340	-0.119
-368.756	106.400	0.154	0.180
-367.742	31.949	-0.163	0.139
-366.727	-200.000	0.003	0.089
-365.712	-139.164	0.196	0.021
-364.698	31.627	0.084	0.072
-363.683	-200.000	0.013	0.205
-362.669	-101.534	0.257	0.062
-361.654	-117.704	-0.285	0.051
-360.639	-200.000	-0.004	-0.074
-359.625	-200.000	-0.018	0.180
-358.610	-200.000	0.016	0.205
-357.596	3.291	0.316	-0.227
-356.581	19.374	-0.245	0.194
-355.566	44.864	-0.132	-0.120
-354.552	571.303	0.110	-0.264
-353.537	-74.517	-0.299	0.106
-352.523	74.364	-0.187	-0.194
-351.508	150.947	0.273	0.366
-350.493	-79.138	0.303	0.101
-349.479	-71.334	-0.606	-0.224
-348.464	458.574	0.038	0.084
-347.450	258.642	-0.206	0.350
-346.435	33.711	-0.049	0.042
-345.420	-35.902	0.173	-0.092
-344.406	800.000	-0.110	0.341
-343.391	-76.351	0.127	0.044
-342.377	41.997	0.130	0.116
-341.362	-151.271	-0.060	0.004
-340.348	790.954	-0.072	-0.194
-339.333	26.157	-0.169	0.139
-338.318	-200.000	0.017	-0.123
-337.304	527.487	0.092	0.214
-336.289	800.000	0.031	0.116
-335.275	49.633	-0.165	-0.154
-334.260	-77.223	0.291	-0.100
-333.245	56.836	-0.262	0.252
-332.231	-200.000	-0.017	-0.105
-331.216	-200.000	-0.026	-0.115
-330.202	-87.600	-0.189	0.056
-329.187	-200.000	0.024	-0.110
-328.172	766.458	-0.049	-0.131
-327.158	63.655	-0.211	-0.209
-326.143	800.000	0.116	-0.380
-325.129	-200.000	-0.003	0.022
-324.114	77.015	0.068	-0.071
-323.099	290.776	-0.200	-0.358
-322.085	182.458	0.152	-0.221
-321.070	-104.956	-0.198	-0.045
-320.056	59.635	-0.109	0.106
-319.041	55.047	0.157	0.150
-318.026	-113.508	-0.045	0.009
-317.012	786.302	0.045	0.123
-315.997	446.644	0.097	0.210
-314.983	-135.692	-0.336	0.039
-313.968	468.966	0.062	0.137
-312.953	-174.236	0.393	0.011
-311.939	251.307	-0.152	-0.254
-310.924	800.000	-0.025	-0.070
-309.910	232.979	-0.069	-0.112
-308.895	800.000	0.050	0.144
-307.880	800.000	0.057	0.207
-306.866	-110.506	0.163	0.033
-305.851	-59.764	0.109	-0.046
-304.837	-71.037	0.043	-0.016
-303.822	-64.732	-0.132	0.053
-302.807	70.707	-0.086	0.088
-301.793	800.000	0.117	-0.384
-300.778	-58.827	0.241	0.103
-299.764	107.743	0.123	-0.145
-298.749	-20.693	0.082	0.050
-297.735	113.727	0.078	-0.093
-296.720	20.246	-0.166	0.132
-295.705	412.003	0.085	-0.177
-294.691	-166.444	-0.139	0.006
-293.676	800.000	0.100	-0.416
-292.662	-30.402	0.103	-0.057
-291.647	-180.069	0.277	0.006
-290.632	59.653	0.148	0.144
-289.618	-200.000	0.008	-0.359
-288.603	-160.433	0.211	-0.011
-287.589	800.000	-0.089	-0.372
-286.574	171.400	-0.207	-0.293
-285.559	468.033	-0.056	-0.125
-284.545	-115.195	-0.351	-0.065
-283.530	514.116	-0.071	0.162
-282.516	800.000	0.046	-0.196
-281.501	-59.898	0.153	0.065
-280.486	800.000	-0.136	0.387
-279.472	145.224	0.188	0.247
-278.457	64.451	0.266	-0.263
-277.443	-200.000	-0.040	0.180
-276.428	-70.159	-0.233	0.087
-275.413	41.324	-0.108	0.096
-274.399	-200.000	-0.025	-0.142
-273.384	-163.991	0.123	-0.006
-272.370	-104.426	0.344	-0.078
-271.355	-200.000	-0.022	0.340
-270.340	-151.407	-0.304	0.022
-269.326	800.000	0.080	-0.339
-268.311	757.076	-0.118	0.314
-267.297	800.000	-0.055	0.233
-266.282	21.478	0.234	-0.187
-265.267	-58.064	-0.117	0.050
-264.253	431.496	0.142	-0.303
-263.238	-74.291	0.358	-0.127
-262.224	-131.135	-0.207	-0.027
-261.209	288.917	-0.180	-0.321
-260.195	145.886	0.143	-0.188
-259.180	71.950	-0.113	0.116
-258.165	119.967	0.027	-0.033
-257.151	276.091	0.163	0.284
-256.136	11.562	-0.117	-0.088
-255.122	800.000	0.038	-0.136
-254.107	-110.430	0.176	0.036
-253.092	-99.445	-0.079	-0.019
-252.078	28.418	0.070	-0.059
-251.063	5.747	-0.111	-0.081
-250.049	332.918	-0.067	-0.128
-249.034	-200.000	-0.029	-0.126
-248.019	-200.000	-0.001	-0.164
-247.005	740.764	-0.152	0.401
-245.990	231.269	0.105	-0.168
-244.976	-20.959	-0.255	0.154
-243.961	-47.149	-0.021	-0.010
-242.946	-200.000	-0.036	-0.223
-241.932	800.000	0.051	0.206
-240.917	55.121	-0.069	0.066
-239.903	-124.042	0.190	-0.029
-238.888	-57.348	-0.264	-0.114
-237.873	-200.000	0.016	0.087
-236.859	-200.000	-0.010	-0.123
-235.844	43.812	0.139	-0.125
-234.830	-58.231	-0.166	0.071
-233.815	-67.919	0.220	0.085
-232.800	-119.458	-0.381	-0.065
-231.786	800.000	0.076	0.224
-230.771	-51.080	-0.239	0.110
-229.757	-200.000	0.035	-0.287
-228.742	-62.961	-0.334	-0.136
-227.727	-200.000	0.022	0.209
-226.713	-36.857	-0.440	-0.232
-225.698	-16.733	0.051	-0.032
-224.684	-200.000	-0.029	0.169
-223.669	-33.792	-0.371	0.201
-222.655	25.984	-0.009	0.008
-221.640	-200.000	-0.025	-0.263
-220.625	-49.148	0.130	0.061
-219.611	53.285	-0.193	-0.182
-218.596	-152.543	0.294	-0.021
-217.582	800.000	0.051	-0.160
-216.567	-200.000	-0.012	-0.057
-215.552	-40.018	0.075	-0.038
-214.538	-7.019	-0.197	-0.131
-213.523	-35.103	0.147	0.079
-212.509	-38.534	-0.172	0.089
-211.494	476.250	0.078	0.172
-210.479	96.720	0.049	0.056
-209.465	-20.633	-0.087	-0.053
-208.450	800.000	0.026	-0.107
-207.436	-200.000	-0.031	0.217
-206.421	150.973	-0.140	0.187
-205.406	8.219	0.296	0.218
-204.392	-200.000	0.021	0.209
-203.377	140.039	-0.230	0.298
-202.363	121.445	0.192	0.234
-201.348	3.283	0.238	-0.170
-200.333	-9.017	0.101	0.066
-199.319	-114.787	0.459	0.086
-198.304	800.000	0.067	-0.252
-197.290	62.248	0.033	0.032
-196.275	33.724	-0.444	-0.379
-195.260	64.503	-0.049	0.048
-194.246	-20.342	0.182	0.110
-193.231	-105.273	0.367	0.082
-192.217	800.000	0.031	0.101
-191.202	800.000	-0.119	-0.329
-190.187	-200.000	0.015	-0.222
-189.173	-7.427	-0.194	0.129
-188.158	-31.479	-0.326	0.180
-187.144	-200.000	0.005	-0.194
-186.129	800.000	0.059	0.249
-185.114	-200.000	0.007	-0.040
-184.100	-186.056	0.052	-0.001
-183.085	-72.758	0.577	0.208
-182.071	-200.000	-0.019	-0.094
-181.056	57.170	0.050	0.048
-180.042	-200.000	0.054	-0.302
-179.027	557.836	-0.028	0.067
-178.012	555.306	0.054	-0.127
-176.998	492.098	-0.063	0.142
-175.983	800.000	0.028	0.116
-174.969	800.000	0.069	-0.241
-173.954	322.499	-0.082	0.154
-172.939	100.817	0.068	-0.078
-171.925	800.000	0.080	0.321
-170.910	-147.709	0.167	-0.014
-169.896	-200.000	-0.010	-0.047
-168.881	-200.000	-0.013	0.105
-167.866	-51.362	0.193	-0.088
-166.852	81.280	-0.089	0.094
-165.837	-71.054	-0.187	-0.069
-164.823	-164.831	-0.296	0.013
-163.808	-52.460	0.455	0.206
-162.793	-108.794	-0.272	0.057
-161.779	617.460	0.130	-0.320
-160.764	126.175	-0.114	-0.141
-159.750	800.000	0.123	0.348
-158.735	-139.628	0.183	0.019
-157.720	26.562	0.407	-0.333
-156.706	410.435	-0.109	-0.227
-155.691	-2.176	-0.145	0.100
-154.677	-200.000	0.025	0.184
-153.662	-200.000	-0.075	-0.401
-152.647	105.157	0.277	0.320
-151.633	97.154	0.047	0.053
-150.618	143.674	-0.087	0.114
-149.604	-93.005	-0.162	0.044
-148.589	800.000	-0.071	-0.235
-147.574	316.133	-0.041	-0.076
-146.560	105.894	-0.185	-0.215
-145.545	800.000	-0.097	-0.351
-144.531	-81.776	0.143	0.046
-143.516	-57.268	0.229	0.099
-142.502	-200.000	0.003	0.072
-141.487	125.924	-0.059	-0.073
-140.472	-45.453	0.369	0.179
-139.458	-130.166	-0.152	-0.020
-138.443	-17.186	-0.165	-0.102
-137.429	128.671	0.177	-0.221
-136.414	135.990	0.220	-0.280
-135.399	740.660	0.035	-0.092
-134.385	-43.661	0.233	0.115
-133.370	158.252	-0.154	-0.210
-132.356	780.036	0.041	-0.111
-131.341	-68.311	0.257	-0.098
-130.326	-129.374	0.084	-0.011
-129.312	42.566	-0.135	0.120
-128.297	-108.715	0.242	-0.051
-127.283	-39.251	-0.311	0.160
-126.268	-63.413	-0.184	-0.074
-125.253	-200.000	-0.031	-0.212
-124.239	-200.000	0.048	-0.260
-123.224	74.066	-0.166	0.170
-122.210	800.000	0.130	0.358
-121.195	343.600	0.047	0.089
-120.180	-200.000	0.041	-0.273
