DTS Sentinel unit serial number:	SN413079Multiplexer serial number:	ORYXHardware model number:	OX4-SRSoftware version number:	ORYX F/W v4.00 Oryx Data Collector v3.7.2.0data status	okinstallation	princeton_trtdifferential loss correction	single-endedforward channel	channel 1reverse channel	N/Adate	2019/09/11time	22:32:11forward acquisition time	60.00reverse acquisition time	0.00gamma	496.2192k internal	0.2315k external	0.2315temperature offset calibration	1.0058default loss term (dB/km)	0.3790temperature slope calibration	1.0000multiplexer offset coefficient	1.0000multiplexer slope coefficient	1.0000fibre end	0.00T internal ref (°C)	35.06T ext. ref 1 (°C)	1.79T ext. ref 2 (°C)	29.49length (m)	temperature (°C)	Stokes	anti-Stokes-747.200	-104.929	-0.067	0.016
-746.185	45.152	-0.244	0.228
-745.171	468.138	0.059	0.135
-744.156	-14.145	-0.045	-0.030
-743.142	-105.497	-0.164	0.038
-742.127	-200.000	-0.015	0.200
-741.112	-118.204	-0.141	0.026
-740.098	16.784	0.101	0.081
-739.083	16.131	-0.230	-0.183
-738.069	-4.644	0.231	0.161
-737.054	116.044	-0.007	0.008
-736.039	-200.000	0.007	-0.204
-735.025	800.000	0.113	-0.326
-734.010	52.862	-0.042	-0.040
-732.996	-84.996	-0.277	-0.088
-731.981	183.876	-0.104	0.155
-730.966	183.186	-0.058	0.087
-729.952	2.390	0.157	-0.115
-728.937	800.000	0.039	0.154
-727.923	341.106	-0.085	-0.168
-726.908	465.511	-0.036	0.081
-725.894	10.377	0.082	-0.063
-724.879	-44.376	0.167	0.085
-723.864	-83.649	-0.260	0.084
-722.850	569.757	-0.092	-0.227
-721.835	58.635	-0.258	-0.256
-720.821	800.000	0.024	0.076
-719.806	-200.000	0.001	0.048
-718.791	-93.956	-0.167	-0.046
-717.777	800.000	-0.074	-0.301
-716.762	-137.235	-0.053	0.006
-715.748	-200.000	-0.032	-0.369
-714.733	-56.788	-0.198	0.088
-713.718	315.261	0.138	0.263
-712.704	-125.393	-0.132	-0.020
-711.689	34.941	0.128	0.113
-710.675	-71.740	0.173	0.065
-709.660	-71.374	-0.343	0.130
-708.645	136.728	0.154	-0.203
-707.631	123.438	0.136	0.173
-706.616	159.871	0.062	-0.087
-705.602	-94.407	0.279	0.077
-704.587	-137.721	0.089	0.010
-703.572	36.073	-0.149	-0.133
-702.558	-45.293	-0.383	-0.193
-701.543	449.137	0.069	0.154
-700.529	660.334	-0.156	-0.405
-699.514	12.398	-0.137	-0.107
-698.499	328.544	-0.176	-0.343
-697.485	-135.116	0.017	-0.002
-696.470	-46.755	-0.186	-0.092
-695.456	-43.454	-0.035	0.018
-694.441	-76.983	0.158	-0.056
-693.426	-19.923	0.248	-0.155
-692.412	35.027	-0.171	0.151
-691.397	397.181	0.058	0.122
-690.383	-119.187	0.290	-0.051
-689.368	-150.472	-0.416	-0.032
-688.354	-130.515	0.233	0.032
-687.339	19.028	-0.076	-0.062
-686.324	-20.960	-0.378	0.234
-685.310	-133.069	0.320	0.041
-684.295	800.000	-0.073	-0.206
-683.281	800.000	0.111	-0.338
-682.266	800.000	-0.056	-0.212
-681.251	-59.093	0.416	0.181
-680.237	16.164	-0.177	0.141
-679.222	529.983	-0.094	-0.225
-678.208	800.000	0.029	-0.096
-677.193	-200.000	-0.031	0.207
-676.178	-200.000	-0.001	-0.054
-675.164	-96.686	-0.164	-0.044
-674.149	-126.673	0.053	-0.008
-673.135	-43.997	-0.112	-0.057
-672.120	-89.527	-0.089	0.026
-671.105	440.155	-0.123	0.273
-670.091	800.000	0.089	-0.248
-669.076	-150.950	0.201	0.015
-668.062	-75.945	-0.136	0.049
-667.047	466.779	-0.115	-0.259
-666.032	-89.232	-0.367	0.110
-665.018	-104.376	-0.182	0.043
-664.003	-200.000	-0.010	-0.063
-662.989	800.000	0.037	-0.114
-661.974	41.963	0.273	-0.251
-660.959	-120.620	0.127	-0.022
-659.945	10.148	-0.051	-0.039
-658.930	8.276	-0.323	-0.245
-657.916	-94.108	0.210	0.058
-656.901	26.424	-0.036	0.031
-655.886	-200.000	-0.026	0.195
-654.872	117.042	-0.105	-0.130
-653.857	-18.043	-0.250	0.158
-652.843	-80.089	0.138	-0.047
-651.828	800.000	0.072	-0.280
-650.814	800.000	0.056	0.174
-649.799	410.541	-0.183	0.393
-648.784	64.328	0.116	-0.118
-647.770	70.325	-0.150	-0.157
-646.755	279.807	-0.047	0.085
-645.741	46.002	-0.148	-0.138
-644.726	91.840	0.138	-0.157
-643.711	-49.430	-0.068	-0.033
-642.697	414.208	0.098	-0.211
-641.682	143.881	-0.130	0.175
-640.668	-137.164	0.067	0.008
-639.653	-200.000	-0.040	-0.398
-638.638	800.000	-0.052	-0.185
-637.624	-57.146	0.088	-0.039
-636.609	-141.870	0.433	-0.044
-635.595	-172.872	0.294	-0.009
-634.580	-200.000	0.038	-0.414
-633.565	-90.705	-0.253	-0.074
-632.551	-11.989	0.110	-0.073
-631.536	-200.000	-0.035	-0.220
-630.522	800.000	-0.024	0.089
-629.507	-200.000	0.028	-0.148
-628.492	87.007	0.217	0.242
-627.478	-61.902	-0.027	-0.011
-626.463	-137.700	-0.279	-0.032
-625.449	-200.000	-0.028	0.133
-624.434	228.432	0.079	0.129
-623.419	364.543	-0.067	-0.137
-622.405	29.142	-0.265	-0.227
-621.390	-200.000	0.008	0.138
-620.376	42.560	-0.286	0.262
-619.361	-71.612	-0.190	-0.072
-618.346	-48.343	-0.255	0.124
-617.332	-169.682	-0.109	0.004
-616.317	-200.000	0.062	0.352
-615.303	800.000	0.113	0.407
-614.288	-200.000	0.019	0.168
-613.273	800.000	-0.044	0.180
-612.259	66.697	0.119	0.122
-611.244	128.621	0.239	-0.307
-610.230	-138.762	0.252	-0.028
-609.215	-53.489	-0.239	-0.110
-608.201	-97.789	-0.263	-0.069
-607.186	-142.226	-0.147	0.015
-606.171	-148.918	-0.125	0.010
-605.157	600.865	0.157	0.394
-604.142	-200.000	-0.079	0.385
-603.128	-57.856	0.354	0.156
-602.113	-44.276	0.272	0.138
-601.098	612.781	0.058	0.145
-600.084	100.613	0.162	0.189
-599.069	159.834	0.261	0.366
-598.055	-87.462	-0.309	0.094
-597.040	264.123	0.041	0.071
-596.025	800.000	-0.082	-0.259
-595.011	-164.233	-0.125	0.006
-593.996	-161.469	-0.301	0.016
-592.982	-200.000	-0.000	0.088
-591.967	32.894	0.193	-0.168
-590.952	251.375	-0.181	0.311
-589.938	-89.281	-0.191	-0.057
-588.923	152.768	0.136	-0.187
-587.909	70.306	-0.090	0.094
-586.894	-200.000	0.011	0.323
-585.879	106.161	-0.056	0.067
-584.865	-176.202	-0.534	-0.014
-583.850	-200.000	-0.024	-0.192
-582.836	-36.586	-0.249	-0.135
-581.821	-200.000	-0.118	0.000
-580.806	208.279	0.074	-0.117
-579.792	800.000	-0.028	-0.079
-578.777	87.278	0.227	-0.252
-577.763	800.000	-0.052	0.171
-576.748	555.703	-0.083	-0.201
-575.733	-200.000	-0.030	0.369
-574.719	-108.533	0.234	0.051
-573.704	-121.796	0.099	0.016
-572.690	-98.927	0.083	-0.021
-571.675	-183.361	0.319	-0.006
-570.661	-31.665	-0.158	-0.090
-569.646	-158.585	0.047	0.003
-568.631	178.437	0.089	-0.130
-567.617	-200.000	-0.010	0.285
-566.602	120.445	0.216	0.270
-565.588	800.000	0.029	0.114
-564.573	127.683	-0.030	0.039
-563.558	139.151	-0.059	-0.078
-562.544	359.139	0.224	0.450
-561.529	-200.000	0.011	-0.261
-560.515	-129.184	-0.433	0.061
-559.500	-200.000	0.003	-0.045
-558.485	28.065	0.233	-0.198
-557.471	-46.700	0.327	0.161
-556.456	-51.130	-0.257	-0.121
-555.442	315.121	0.090	0.170
-554.427	-200.000	-0.058	-0.263
-553.412	276.925	-0.126	-0.226
-552.398	-85.583	-0.443	-0.139
-551.383	433.275	0.129	0.282
-550.369	-75.744	-0.046	-0.016
-549.354	-73.233	-0.441	-0.163
-548.339	265.845	-0.083	-0.145
-547.325	-121.698	-0.514	-0.086
-546.310	-103.069	-0.060	-0.014
-545.296	583.758	-0.092	0.226
-544.281	582.872	-0.050	0.122
-543.266	-120.148	0.187	0.032
-542.252	629.822	0.071	0.180
-541.237	800.000	0.034	0.136
-540.223	-80.233	-0.183	0.062
-539.208	-124.784	-0.229	-0.036
-538.193	800.000	-0.091	-0.265
-537.179	-11.431	0.059	0.039
-536.164	-114.968	0.156	0.030
-535.150	74.897	0.135	-0.143
-534.135	-35.065	0.149	-0.082
-533.121	-125.219	-0.075	0.011
-532.106	145.933	-0.206	-0.277
-531.091	23.384	-0.306	-0.253
-530.077	571.869	-0.035	0.085
-529.062	22.680	0.060	-0.050
-528.048	-23.026	0.071	0.043
-527.033	313.445	-0.090	-0.171
-526.018	-98.178	0.125	0.032
-525.004	-200.000	-0.292	0.001
-523.989	75.046	0.286	-0.303
-522.975	-152.527	-0.424	-0.031
-521.960	800.000	0.026	-0.108
-520.945	21.582	0.291	-0.238
-519.931	68.996	-0.155	0.160
-518.916	390.971	-0.155	-0.323
-517.902	599.974	0.039	-0.098
-516.887	630.117	0.130	-0.330
-515.872	800.000	0.077	-0.217
-514.858	-138.251	0.498	0.055
-513.843	-200.000	0.038	0.269
-512.829	337.452	-0.127	0.248
-511.814	-95.971	-0.075	0.020
-510.799	800.000	-0.050	-0.172
-509.785	-121.259	0.154	-0.026
-508.770	-200.000	-0.019	-0.380
-507.756	-48.424	-0.281	-0.136
-506.741	800.000	-0.032	-0.123
-505.726	-30.582	0.101	-0.057
-504.712	114.016	-0.068	0.083
-503.697	-36.100	0.212	0.115
-502.683	-26.795	-0.238	-0.140
-501.668	-42.452	0.040	-0.020
-500.653	664.698	-0.040	0.104
-499.639	66.889	0.229	0.234
-498.624	306.477	-0.089	-0.167
-497.610	-200.000	0.039	0.357
-496.595	111.655	-0.092	0.111
-495.581	-133.511	-0.326	-0.041
-494.566	-73.945	0.137	0.050
-493.551	-49.882	-0.202	-0.096
-492.537	-84.257	0.271	0.086
-491.522	-200.000	-0.008	-0.244
-490.508	-3.106	0.163	0.114
-489.493	-145.208	-0.455	0.041
-488.478	-200.000	-0.021	-0.141
-487.464	617.234	-0.028	-0.070
-486.449	-20.332	-0.366	0.226
-485.435	236.267	0.095	-0.157
-484.420	-200.000	0.007	-0.288
-483.405	28.316	-0.186	0.158
-482.391	-200.000	-0.007	0.164
-481.376	28.829	-0.234	-0.198
-480.362	-100.843	-0.237	-0.058
-479.347	-153.287	-0.178	-0.012
-478.332	136.065	0.082	0.107
-477.318	-178.153	0.095	-0.002
-476.303	127.714	0.119	0.152
-475.289	33.190	-0.101	-0.087
-474.274	92.662	0.111	0.126
-473.259	-72.976	-0.168	-0.062
-472.245	-168.001	-0.290	-0.011
-471.230	46.594	0.218	-0.203
-470.216	-88.611	0.210	-0.063
-469.201	-15.464	-0.239	0.153
-468.186	-170.913	-0.454	-0.016
-467.172	-121.129	0.345	-0.058
-466.157	456.478	-0.090	0.200
-465.143	-200.000	-0.248	0.000
-464.128	-172.135	0.205	-0.007
-463.113	-200.000	-0.012	0.174
-462.099	-200.000	0.021	0.114
-461.084	-95.075	0.417	-0.113
-460.070	-200.000	0.100	-0.460
-459.055	589.780	0.073	-0.180
-458.040	18.182	-0.177	-0.141
-457.026	62.662	-0.216	-0.216
-456.011	456.594	-0.112	-0.248
-454.997	-200.000	0.067	-0.412
-453.982	-71.130	0.231	0.087
-452.968	255.141	0.083	0.142
-451.953	-91.718	-0.079	-0.023
-450.938	396.947	-0.034	-0.072
-449.924	247.286	0.079	0.134
-448.909	-169.718	-0.115	-0.004
-447.895	-70.949	-0.264	0.100
-446.880	358.669	0.052	0.103
-445.865	99.945	0.147	-0.171
-444.851	79.752	0.099	-0.106
-443.836	-98.629	0.344	0.088
-442.822	-174.579	0.342	0.010
-441.807	158.858	-0.107	0.149
-440.792	38.002	-0.114	0.102
-439.778	137.002	0.171	-0.224
-438.763	-13.395	-0.102	-0.066
-437.749	158.176	0.048	0.067
-436.734	-113.954	-0.260	0.050
-435.719	-200.000	0.007	0.214
-434.705	159.430	-0.185	0.258
-433.690	156.134	0.064	0.089
-432.676	-147.609	-0.146	0.012
-431.661	-83.919	-0.163	-0.052
-430.646	-8.519	-0.047	-0.032
-429.632	-182.499	0.099	0.002
-428.617	-141.965	0.245	0.024
-427.603	-200.000	0.010	-0.112
-426.588	-200.000	-0.000	0.046
-425.573	-98.868	0.183	0.047
-424.559	-118.844	-0.283	-0.050
-423.544	116.988	0.062	-0.077
-422.530	-200.000	-0.034	-0.266
-421.515	-104.908	-0.289	0.066
-420.500	-132.228	0.468	-0.061
-419.486	800.000	0.072	0.236
-418.471	58.600	-0.037	0.036
-417.457	-93.580	0.190	-0.053
-416.442	14.718	-0.079	-0.062
-415.428	800.000	0.027	-0.116
-414.413	46.101	-0.053	0.049
-413.398	23.892	-0.107	-0.089
-412.384	-200.000	0.049	0.287
-411.369	-146.860	0.404	-0.035
-410.355	-102.253	0.268	0.064
-409.340	-113.385	0.551	-0.108
-408.325	444.026	-0.114	-0.251
-407.311	54.487	-0.087	0.084
-406.296	-200.000	-0.014	0.122
-405.282	-110.064	-0.236	0.049
-404.267	-99.661	0.148	-0.037
-403.252	-39.364	-0.121	0.063
-402.238	199.792	-0.127	0.195
-401.223	800.000	0.053	-0.157
-400.209	800.000	-0.070	0.211
-399.194	10.543	-0.135	0.103
-398.179	-101.547	-0.230	-0.056
-397.165	-200.000	0.004	-0.277
-396.150	329.641	-0.150	0.289
-395.136	-200.000	-0.056	0.378
-394.121	800.000	0.010	-0.029
-393.106	21.787	-0.109	0.089
-392.092	268.724	0.078	-0.136
-391.077	-32.332	0.200	-0.111
-390.063	77.418	-0.179	0.191
-389.048	687.131	0.065	-0.169
-388.033	800.000	0.117	-0.332
-387.019	800.000	-0.131	0.360
-386.004	800.000	0.041	-0.132
-384.990	-200.000	0.078	-0.444
-383.975	-58.093	0.189	0.083
-382.960	-200.000	-0.039	0.208
-381.946	-57.070	-0.264	0.116
-380.931	744.798	0.172	0.464
-379.917	-83.394	0.097	-0.031
-378.902	388.768	0.087	0.180
-377.888	119.116	0.208	0.256
-376.873	-55.391	-0.132	0.059
-375.858	800.000	-0.048	0.172
-374.844	-149.670	0.551	0.043
-373.829	800.000	-0.086	0.244
-372.815	236.282	-0.115	-0.191
-371.800	486.638	0.040	-0.091
-370.785	140.800	-0.175	0.231
-369.771	-200.000	0.073	-0.374
-368.756	232.383	-0.076	-0.125
-367.742	-200.000	-0.064	0.511
-366.727	-200.000	-0.009	0.318
-365.712	800.000	-0.020	-0.065
-364.698	-200.000	0.024	0.310
-363.683	14.539	-0.039	0.030
-362.669	-155.746	-0.146	-0.009
-361.654	-200.000	0.122	-0.602
-360.639	-200.000	0.033	-0.222
-359.625	-69.570	0.119	-0.045
-358.610	27.983	0.085	-0.072
-357.596	412.632	-0.069	-0.147
-356.581	-50.677	0.201	0.094
-355.566	-200.000	0.019	-0.198
-354.552	-138.727	-0.247	0.027
-353.537	30.315	-0.177	0.151
-352.523	-200.000	0.028	0.143
-351.508	-200.000	-0.007	-0.179
-350.493	-80.356	0.256	0.085
-349.479	-200.000	-0.002	0.087
-348.464	92.668	-0.153	0.172
-347.450	68.370	0.126	0.129
-346.435	64.818	-0.152	-0.153
-345.420	129.591	-0.148	0.188
-344.406	-160.020	-0.102	0.006
-343.391	157.876	0.152	-0.211
-342.377	-86.504	0.154	-0.047
-341.362	-24.554	0.102	-0.060
-340.348	-120.472	-0.289	-0.049
-339.333	-197.017	0.320	0.002
-338.318	48.811	0.188	0.176
-337.304	800.000	0.044	0.182
-336.289	-200.000	0.011	0.071
-335.275	-200.000	0.002	0.201
-334.260	-200.000	0.006	-0.043
-333.245	-75.061	-0.147	-0.052
-332.231	173.283	0.124	0.179
-331.216	-200.000	0.001	-0.326
-330.202	800.000	0.029	-0.115
-329.187	-11.864	-0.062	0.041
-328.172	150.079	-0.064	-0.087
-327.158	800.000	-0.065	-0.181
-326.143	800.000	0.119	-0.380
-325.129	-42.335	-0.132	-0.067
-324.114	-22.656	0.173	-0.104
-323.099	-22.877	0.244	-0.147
-322.085	56.539	0.171	-0.165
-321.070	800.000	-0.129	-0.496
-320.056	-200.000	0.039	0.361
-319.041	-200.000	-0.008	0.208
-318.026	-30.991	0.175	0.099
-317.012	-94.983	0.089	0.024
-315.997	21.492	0.156	0.127
-314.983	166.094	-0.058	0.082
-313.968	-134.255	0.165	0.020
-312.953	-171.553	0.166	0.005
-311.939	-164.537	-0.163	-0.007
-310.924	-86.695	-0.356	-0.109
-309.910	-53.812	-0.362	-0.165
-308.895	-200.000	-0.065	0.458
-307.880	-95.237	0.355	0.095
-306.866	-119.170	-0.207	-0.036
-305.851	800.000	0.059	-0.163
-304.837	-200.000	0.019	0.261
-303.822	-30.866	-0.206	-0.116
-302.807	-200.000	0.015	0.067
-301.793	-200.000	-0.030	-0.170
-300.778	148.900	-0.056	-0.075
-299.764	-109.009	0.101	-0.021
-298.749	257.535	-0.090	-0.155
-297.735	45.789	0.352	-0.324
-296.720	151.957	-0.198	0.268
-295.705	96.325	0.114	0.130
-294.691	-200.000	0.020	0.242
-293.676	186.452	-0.124	0.184
-292.662	-92.226	-0.192	0.054
-291.647	144.009	0.276	0.366
-290.632	-60.905	-0.191	-0.080
-289.618	-200.000	0.009	0.132
-288.603	-200.000	-0.033	0.380
-287.589	-200.000	0.002	-0.165
-286.574	-186.344	0.197	-0.003
-285.559	69.944	-0.084	-0.086
-284.545	-200.000	0.030	-0.193
-283.530	653.076	-0.048	0.124
-282.516	60.227	0.141	0.139
-281.501	-81.775	0.302	-0.099
-280.486	-200.000	0.036	0.372
-279.472	74.802	-0.203	-0.213
-278.457	-200.000	0.012	-0.109
-277.443	800.000	0.038	-0.164
-276.428	458.726	0.066	0.145
-275.413	-71.737	0.134	-0.050
-274.399	22.929	-0.158	0.129
-273.384	-56.709	0.296	-0.130
-272.370	32.230	-0.276	0.237
-271.355	800.000	0.024	0.071
-270.340	-132.210	-0.261	-0.034
-269.326	83.757	-0.234	0.254
-268.311	-26.525	0.183	-0.107
-267.297	259.494	-0.074	-0.126
-266.282	-46.246	-0.341	-0.167
-265.267	389.579	-0.090	0.187
-264.253	254.768	-0.099	0.168
-263.238	2.009	-0.097	0.070
-262.224	-60.152	0.152	0.064
-261.209	181.821	-0.137	-0.200
-260.195	-12.645	0.274	-0.178
-259.180	-85.376	-0.114	-0.035
-258.165	161.157	-0.116	0.161
-257.151	-93.929	0.045	-0.012
-256.136	-154.036	-0.158	-0.011
-255.122	-200.000	0.159	0.000
-254.107	469.320	-0.100	-0.224
-253.092	-69.309	0.205	0.078
-252.078	9.122	0.269	-0.202
-251.063	800.000	-0.035	-0.144
-250.049	28.406	-0.008	0.007
-249.034	800.000	-0.089	-0.279
-248.019	-37.172	0.306	0.163
-247.005	-89.719	-0.001	0.000
-245.990	-200.000	0.019	0.353
-244.976	261.582	-0.098	0.170
-243.961	-200.000	-0.000	-0.055
-242.946	141.163	0.137	-0.181
-241.932	-180.391	0.487	0.010
-240.917	-14.222	-0.329	0.211
-239.903	-200.000	-0.049	0.375
-238.888	-200.000	-0.017	-0.163
-237.873	-52.898	-0.311	-0.142
-236.859	-80.912	-0.286	-0.094
-235.844	-62.813	-0.060	-0.025
-234.830	47.688	-0.224	0.208
-233.815	-200.000	0.020	0.199
-232.800	-80.009	-0.292	0.097
-231.786	4.432	0.258	-0.188
-230.771	-200.000	0.039	0.234
-229.757	-200.000	-0.050	0.230
-228.742	-148.702	0.118	0.010
-227.727	-200.000	-0.037	-0.285
-226.713	-200.000	-0.032	-0.171
-225.698	-49.397	0.312	-0.148
-224.684	29.703	0.026	-0.022
-223.669	-28.219	-0.022	-0.013
-222.655	373.012	0.021	-0.042
-221.640	150.359	0.224	0.302
-220.625	436.650	-0.090	0.194
-219.611	-63.859	-0.404	-0.164
-218.596	311.106	0.097	0.180
-217.582	536.114	0.124	-0.291
-216.567	43.224	-0.055	-0.050
-215.552	633.141	-0.030	0.076
-214.538	-118.254	0.056	-0.010
-213.523	-73.319	0.140	0.051
-212.509	-181.781	-0.260	0.005
-211.494	-69.114	0.546	-0.209
-210.479	-39.037	-0.300	-0.157
-209.465	-132.995	0.228	0.029
-208.450	212.955	0.055	-0.087
-207.436	57.018	-0.124	-0.120
-206.421	132.070	0.214	-0.274
-205.406	51.138	0.275	-0.259
-204.392	-59.609	-0.092	-0.039
-203.377	-46.162	0.320	-0.156
-202.363	138.067	0.166	0.216
-201.348	-114.094	0.168	0.032
-200.333	664.981	-0.173	-0.442
-199.319	41.989	0.075	-0.068
-198.304	-120.925	0.067	-0.011
-197.290	59.786	0.219	-0.214
-196.275	-55.940	0.229	-0.101
-195.260	30.011	-0.131	0.111
-194.246	-37.906	-0.163	-0.086
-193.231	223.939	0.051	0.081
-192.217	-116.611	0.451	-0.082
-191.202	-144.632	-0.063	-0.006
-190.187	81.256	0.139	0.149
-189.173	-99.192	0.133	-0.033
-188.158	800.000	-0.124	-0.351
-187.144	334.315	-0.080	-0.154
-186.129	-169.923	-0.199	-0.007
-185.114	754.881	0.051	0.136
-184.100	446.932	0.157	-0.343
-183.085	110.423	0.052	-0.062
-182.071	589.953	0.114	-0.280
-181.056	143.522	-0.055	0.072
-180.042	-200.000	-0.035	0.317
-179.027	-10.711	0.105	-0.069
-178.012	-200.000	0.020	0.127
-176.998	-32.926	-0.155	0.085
-175.983	-200.000	-0.029	-0.164
-174.969	228.388	0.143	0.231
-173.954	119.666	0.172	0.211
-172.939	78.000	-0.051	0.054
-171.925	737.658	0.035	-0.092
-170.910	-62.900	0.141	0.058
-169.896	70.819	-0.233	0.239
-168.881	-200.000	0.009	0.098
-167.866	79.235	0.065	-0.069
-166.852	-133.967	-0.093	0.011
-165.837	-200.000	0.001	0.416
-164.823	-200.000	0.025	-0.131
-163.808	489.568	0.098	0.222
-162.793	422.635	0.054	0.115
-161.779	-166.608	0.214	0.009
-160.764	73.975	0.156	-0.163
-159.750	-119.513	-0.194	-0.033
-158.735	-59.289	0.173	0.074
-157.720	-183.986	-0.319	-0.005
-156.706	17.658	-0.158	-0.124
-155.691	39.732	-0.051	0.045
-154.677	-96.023	0.159	0.042
-153.662	-131.495	0.164	0.021
-152.647	-29.513	0.168	-0.095
-151.633	291.529	-0.065	-0.116
-150.618	145.843	-0.253	-0.336
-149.604	141.349	0.016	0.021
-148.589	800.000	-0.041	0.161
-147.574	7.652	-0.177	-0.131
-146.560	-38.132	-0.206	-0.108
-145.545	-69.351	-0.121	0.046
-144.531	11.769	0.088	-0.067
-143.516	-41.657	0.103	-0.053
-142.502	140.471	0.226	0.295
-141.487	-26.177	-0.198	0.115
-140.472	-200.000	0.043	-0.353
-139.458	-70.480	0.266	0.100
-138.443	-36.603	-0.092	-0.049
-137.429	255.094	-0.111	0.188
-136.414	681.294	-0.023	0.060
-135.399	214.559	0.093	0.146
-134.385	-112.331	-0.259	-0.051
-133.370	-11.121	0.242	-0.158
-132.356	-30.614	-0.144	-0.080
-131.341	-200.000	0.018	-0.162
-130.326	415.640	-0.226	0.476
-129.312	800.000	0.058	0.165
-128.297	567.633	0.068	0.163
-127.283	534.669	0.162	0.379
-126.268	-34.628	0.095	0.052
-125.253	-146.542	-0.308	-0.027
-124.239	154.612	-0.108	-0.146
-123.224	-85.469	-0.216	-0.067
-122.210	-200.000	-0.000	0.159
