DTS Sentinel unit serial number:	SN413079Multiplexer serial number:	ORYXHardware model number:	OX4-SRSoftware version number:	ORYX F/W v4.00 Oryx Data Collector v3.7.2.0data status	okinstallation	princeton_trtdifferential loss correction	single-endedforward channel	channel 1reverse channel	N/Adate	2019/09/13time	05:02:35forward acquisition time	60.00reverse acquisition time	0.00gamma	496.2192k internal	0.2335k external	0.2335temperature offset calibration	1.0158default loss term (dB/km)	0.3790temperature slope calibration	1.0000multiplexer offset coefficient	1.0000multiplexer slope coefficient	1.0000fibre end	0.00T internal ref (°C)	26.47T ext. ref 1 (°C)	4.06T ext. ref 2 (°C)	20.90length (m)	temperature (°C)	Stokes	anti-Stokes-747.200	421.939	-0.074	0.160
-746.185	-114.387	-0.157	-0.030
-745.171	205.516	0.135	-0.210
-744.156	800.000	-0.032	0.126
-743.142	463.997	-0.104	-0.233
-742.127	345.862	-0.087	0.172
-741.112	326.074	0.139	-0.267
-740.098	-181.353	0.056	-0.001
-739.083	-200.000	-0.055	0.396
-738.069	-200.000	-0.040	0.264
-737.054	-200.000	-0.036	-0.239
-736.039	-147.965	-0.399	0.033
-735.025	800.000	0.104	0.292
-734.010	305.046	0.036	-0.066
-732.996	-200.000	-0.008	-0.531
-731.981	108.657	0.189	-0.227
-730.966	133.251	-0.218	0.284
-729.952	-151.619	-0.327	-0.024
-728.937	0.188	-0.274	-0.196
-727.923	-127.732	-0.153	-0.022
-726.908	800.000	-0.107	0.325
-725.894	-200.000	0.001	0.072
-724.879	-147.542	-0.209	0.018
-723.864	-102.688	0.250	0.060
-722.850	800.000	0.086	-0.309
-721.835	-91.595	0.117	0.033
-720.821	-76.968	0.347	0.122
-719.806	800.000	-0.027	-0.098
-718.791	364.016	-0.140	-0.283
-717.777	682.278	-0.037	0.097
-716.762	33.703	-0.368	-0.322
-715.748	43.401	-0.098	-0.090
-714.733	40.664	0.101	-0.091
-713.718	-29.466	0.410	0.235
-712.704	358.171	-0.026	-0.052
-711.689	-2.290	0.151	0.107
-710.675	-200.000	-0.004	0.017
-709.660	665.045	-0.072	-0.186
-708.645	28.967	-0.134	0.114
-707.631	243.500	0.165	-0.278
-706.616	800.000	0.012	0.042
-705.602	-119.377	-0.211	0.037
-704.587	800.000	-0.022	0.078
-703.572	331.276	-0.132	0.256
-702.558	-200.000	-0.008	0.098
-701.543	800.000	-0.027	-0.099
-700.529	169.495	0.048	0.069
-699.514	800.000	-0.103	0.357
-698.499	73.830	-0.097	0.102
-697.485	12.679	-0.251	-0.194
-696.470	54.998	0.183	-0.177
-695.456	362.024	0.109	-0.220
-694.441	-179.890	0.132	0.003
-693.426	-40.766	-0.117	-0.061
-692.412	-120.015	-0.303	-0.052
-691.397	-66.010	-0.050	0.020
-690.383	386.678	-0.200	-0.413
-689.368	-25.087	-0.013	-0.008
-688.354	-22.210	-0.037	0.022
-687.339	-200.000	-0.026	0.178
-686.324	34.982	-0.187	0.164
-685.310	101.788	-0.076	-0.088
-684.295	-19.373	0.117	-0.073
-683.281	41.603	-0.132	-0.119
-682.266	-200.000	0.011	-0.204
-681.251	588.207	-0.052	-0.129
-680.237	-10.691	-0.281	-0.186
-679.222	-64.485	-0.118	-0.048
-678.208	-156.603	-0.200	-0.012
-677.193	142.808	-0.232	-0.309
-676.178	212.490	-0.117	-0.185
-675.164	203.099	0.079	-0.123
-674.149	-127.711	-0.253	-0.037
-673.135	9.257	-0.168	-0.127
-672.120	320.600	0.132	-0.251
-671.105	70.753	-0.061	-0.063
-670.091	800.000	0.095	0.310
-669.076	-121.860	-0.180	-0.030
-668.062	196.321	0.130	-0.198
-667.047	-8.457	0.297	0.200
-666.032	528.186	0.055	0.129
-665.018	-140.381	-0.340	0.036
-664.003	147.136	0.154	0.208
-662.989	12.258	-0.165	0.127
-661.974	-200.000	0.006	-0.163
-660.959	800.000	0.063	-0.196
-659.945	-99.036	-0.210	-0.053
-658.930	-200.000	-0.009	-0.230
-657.916	-154.925	-0.420	-0.028
-656.901	-200.000	0.024	-0.200
-655.886	-140.144	0.103	-0.011
-654.872	-176.129	-0.368	-0.010
-653.857	-57.076	-0.252	0.111
-652.843	-95.294	0.103	-0.028
-651.828	-71.158	-0.103	-0.039
-650.814	800.000	-0.060	-0.196
-649.799	-1.281	-0.113	0.080
-648.784	29.885	-0.173	0.148
-647.770	800.000	-0.026	-0.105
-646.755	193.933	0.062	-0.094
-645.741	113.787	-0.052	-0.063
-644.726	-108.738	0.385	0.083
-643.711	13.320	-0.268	-0.208
-642.697	17.922	-0.138	-0.110
-641.682	-128.342	0.069	0.010
-640.668	453.341	-0.133	0.294
-639.653	-130.002	0.291	-0.040
-638.638	-86.849	0.290	-0.089
-637.624	800.000	-0.060	0.212
-636.609	-200.000	-0.018	0.221
-635.595	89.213	-0.095	-0.106
-634.580	25.576	0.055	-0.046
-633.565	-69.703	-0.363	-0.139
-632.551	-47.252	0.228	-0.111
-631.536	-12.994	0.069	-0.045
-630.522	-119.872	0.207	-0.036
-629.507	126.346	0.113	0.143
-628.492	-200.000	-0.018	0.107
-627.478	800.000	-0.063	0.185
-626.463	-200.000	0.044	0.262
-625.449	492.253	0.035	0.080
-624.434	-28.797	0.109	0.063
-623.419	-70.445	-0.241	0.091
-622.405	250.692	-0.137	-0.233
-621.390	-109.543	-0.258	0.054
-620.376	46.373	0.341	0.316
-619.361	54.836	-0.155	0.149
-618.346	-32.934	0.110	-0.061
-617.332	800.000	0.083	0.298
-616.317	-200.000	-0.040	0.312
-615.303	73.685	0.046	0.048
-614.288	-200.000	0.014	-0.083
-613.273	-9.091	0.390	-0.261
-612.259	-200.000	-0.028	0.232
-611.244	606.665	-0.051	0.127
-610.230	84.889	-0.212	0.233
-609.215	-27.297	0.069	-0.040
-608.201	-84.961	-0.363	0.114
-607.186	1.696	-0.093	-0.067
-606.171	800.000	-0.112	0.341
-605.157	-47.339	0.168	-0.082
-604.142	204.843	0.116	0.179
-603.128	146.397	-0.166	-0.223
-602.113	-178.135	0.047	-0.001
-601.098	147.309	0.118	-0.158
-600.084	18.071	-0.130	-0.103
-599.069	-80.197	-0.040	0.013
-598.055	-169.107	-0.086	0.003
-597.040	-64.029	-0.143	0.058
-596.025	-85.754	-0.232	-0.072
-595.011	-127.973	-0.021	0.003
-593.996	-200.000	0.000	-0.086
-592.982	-59.285	-0.177	-0.076
-591.967	-200.000	-0.075	0.365
-590.952	41.257	0.073	-0.066
-589.938	-156.083	-0.166	0.010
-588.923	-200.000	0.029	0.205
-587.909	800.000	-0.058	0.214
-586.894	-49.401	-0.160	0.076
-585.879	-9.332	0.078	-0.052
-584.865	800.000	0.048	0.200
-583.850	800.000	0.036	-0.148
-582.836	-95.133	0.127	0.034
-581.821	-39.987	0.375	0.195
-580.806	-33.239	-0.185	0.102
-579.792	45.037	0.165	0.152
-578.777	395.314	0.066	0.137
-577.763	-54.145	0.210	-0.095
-576.748	-75.178	-0.233	0.083
-575.733	162.912	0.148	-0.207
-574.719	7.373	-0.124	0.092
-573.704	-200.000	-0.004	-0.049
-572.690	78.267	0.069	-0.073
-571.675	-130.813	0.135	-0.018
-570.661	436.269	0.110	0.240
-569.646	-200.000	0.011	-0.059
-568.631	8.303	-0.131	0.098
-567.617	78.842	-0.084	-0.089
-566.602	554.575	-0.083	-0.200
-565.588	-137.957	-0.231	0.026
-564.573	-33.247	-0.167	-0.092
-563.558	63.171	0.213	-0.213
-562.544	49.499	-0.282	-0.265
-561.529	426.499	-0.051	-0.110
-560.515	121.161	-0.203	-0.252
-559.500	-32.605	-0.151	0.084
-558.485	29.923	0.132	-0.112
-557.471	-115.606	-0.296	-0.055
-556.456	-111.546	-0.282	0.057
-555.442	219.447	0.093	0.148
-554.427	293.087	0.073	-0.133
-553.412	-5.599	-0.094	-0.064
-552.398	-85.796	0.252	0.078
-551.383	62.406	-0.093	0.093
-550.369	-87.898	-0.214	0.064
-549.354	219.053	0.086	0.138
-548.339	-13.593	-0.094	-0.061
-547.325	-66.705	0.271	-0.107
-546.310	98.590	0.169	-0.194
-545.296	-61.733	0.180	0.075
-544.281	-200.000	-0.003	-0.305
-543.266	800.000	0.092	-0.278
-542.252	25.342	-0.118	0.098
-541.237	784.744	-0.062	-0.170
-540.223	-200.000	-0.015	-0.200
-539.208	14.366	0.172	-0.133
-538.193	4.105	-0.152	-0.111
-537.179	190.552	0.177	0.265
-536.164	-156.111	0.050	0.003
-535.150	-86.503	0.188	-0.058
-534.135	800.000	-0.110	0.395
-533.121	-58.802	-0.123	0.053
-532.106	526.028	-0.035	0.081
-531.091	-24.830	0.353	-0.209
-530.077	-200.000	0.044	0.216
-529.062	800.000	-0.123	0.420
-528.048	-168.196	-0.264	-0.010
-527.033	35.619	0.210	-0.183
-526.018	-147.609	-0.186	0.016
-525.004	-148.798	-0.284	0.023
-523.989	-30.074	-0.193	-0.110
-522.975	800.000	0.070	-0.252
-521.960	328.711	-0.124	0.237
-520.945	46.110	0.221	-0.203
-519.931	107.669	-0.269	0.319
-518.916	112.480	-0.114	-0.138
-517.902	-56.972	0.135	-0.059
-516.887	-104.136	-0.332	-0.077
-515.872	46.000	-0.053	-0.048
-514.858	17.449	-0.269	-0.213
-513.843	-200.000	-0.029	0.253
-512.829	-200.000	0.031	-0.387
-511.814	-144.843	-0.260	0.024
-510.799	557.074	-0.022	-0.053
-509.785	324.852	0.039	0.074
-508.770	-200.000	-0.010	0.092
-507.756	147.576	0.189	-0.253
-506.741	51.094	-0.021	-0.019
-505.726	-154.522	0.134	0.009
-504.712	520.036	-0.194	0.452
-503.697	-200.000	-0.066	0.296
-502.683	-200.000	0.005	0.165
-501.668	-4.222	-0.149	-0.102
-500.653	-36.597	-0.128	-0.068
-499.639	123.851	0.193	-0.241
-498.624	177.083	-0.084	-0.122
-497.610	-0.394	0.033	-0.023
-496.595	-15.991	0.255	0.161
-495.581	-21.033	0.122	0.075
-494.566	56.343	-0.111	0.107
-493.551	-105.073	0.136	0.031
-492.537	800.000	-0.053	0.172
-491.522	-200.000	-0.009	-0.178
-490.508	800.000	-0.108	0.372
-489.493	-200.000	-0.003	-0.279
-488.478	242.237	0.018	-0.030
-487.464	-200.000	0.021	-0.260
-486.449	-70.932	-0.498	-0.187
-485.435	-84.262	0.214	-0.067
-484.420	-92.851	0.087	-0.024
-483.405	-25.491	0.195	0.115
-482.391	-122.571	0.273	0.044
-481.376	-200.000	-0.071	-0.336
-480.362	59.746	0.187	-0.184
-479.347	420.417	-0.092	-0.195
-478.332	738.061	-0.091	0.244
-477.318	147.318	0.196	-0.263
-476.303	381.763	-0.078	0.159
-475.289	18.935	0.225	-0.179
-474.274	221.742	0.047	0.074
-473.259	-200.000	-0.009	0.163
-472.245	344.662	-0.093	0.182
-471.230	44.273	-0.170	0.155
-470.216	-117.414	0.120	0.022
-469.201	-28.056	0.241	-0.139
-468.186	179.388	0.116	-0.169
-467.172	-121.419	0.397	0.066
-466.157	151.997	-0.085	0.115
-465.143	-200.000	0.005	-0.050
-464.128	-93.921	-0.128	0.035
-463.113	-156.627	0.306	-0.019
-462.099	201.571	-0.064	0.098
-461.084	800.000	0.009	0.028
-460.070	-74.346	-0.295	-0.106
-459.055	800.000	-0.044	-0.176
-458.040	-200.000	-0.003	-0.277
-457.026	-175.143	0.096	-0.003
-456.011	62.559	-0.120	-0.119
-454.997	-91.689	0.326	0.092
-453.982	-200.000	-0.000	0.058
-452.968	-39.111	0.140	-0.073
-451.953	-107.965	0.330	-0.071
-450.938	-147.580	0.172	-0.014
-449.924	-166.114	-0.069	0.003
-448.909	-26.782	-0.300	-0.174
-447.895	15.543	-0.297	-0.232
-446.880	111.594	-0.095	0.114
-445.865	800.000	0.038	0.131
-444.851	-172.766	-0.431	0.013
-443.836	33.457	-0.043	-0.037
-442.822	-200.000	0.039	-0.228
-441.807	-105.606	-0.095	-0.021
-440.792	248.322	0.113	0.191
-439.778	-200.000	0.032	0.174
-438.763	-200.000	0.007	0.429
-437.749	186.958	0.099	0.146
-436.734	800.000	0.088	0.276
-435.719	-200.000	0.002	0.117
-434.705	67.424	0.230	-0.233
-433.690	-74.913	0.127	0.045
-432.676	11.013	0.247	0.187
-431.661	221.603	-0.040	-0.064
-430.646	-145.952	-0.171	0.015
-429.632	-120.807	-0.146	0.024
-428.617	283.485	-0.107	0.190
-427.603	60.348	-0.245	0.240
-426.588	32.707	0.124	0.106
-425.573	118.722	0.100	-0.122
-424.559	800.000	-0.053	-0.163
-423.544	33.354	0.193	-0.166
-422.530	-90.461	-0.067	-0.019
-421.515	-200.000	-0.018	-0.135
-420.500	-125.067	0.101	-0.015
-419.486	326.507	-0.074	0.141
-418.471	800.000	0.077	-0.248
-417.457	-200.000	0.024	0.108
-416.442	800.000	0.045	-0.189
-415.428	-6.811	0.281	-0.190
-414.413	12.005	-0.086	-0.066
-413.398	41.085	0.217	-0.195
-412.384	-151.972	-0.188	-0.014
-411.369	179.784	0.161	0.235
-410.355	-200.000	-0.024	-0.107
-409.340	2.039	-0.148	-0.106
-408.325	-26.909	0.179	0.104
-407.311	-17.535	-0.128	-0.080
-406.296	-200.000	-0.034	0.162
-405.282	35.039	0.291	-0.253
-404.267	-46.310	0.278	0.135
-403.252	-144.246	0.432	0.040
-402.238	54.089	0.260	0.247
-401.223	-200.000	-0.011	-0.084
-400.209	-16.550	-0.220	-0.138
-399.194	-65.347	-0.211	-0.084
-398.179	800.000	0.055	0.174
-397.165	-200.000	0.030	-0.154
-396.150	-5.484	0.443	0.301
-395.136	292.617	-0.068	0.123
-394.121	-200.000	-0.018	-0.081
-393.106	10.490	0.186	-0.140
-392.092	-144.543	0.345	0.032
-391.077	116.345	-0.042	0.052
-390.063	-17.387	-0.275	0.171
-389.048	-174.594	0.255	0.007
-388.033	800.000	0.015	-0.055
-387.019	-149.923	0.043	0.003
-386.004	-200.000	0.023	-0.203
-384.990	-30.288	-0.261	-0.147
-383.975	-6.221	0.150	-0.101
-382.960	-86.910	-0.429	-0.130
-381.946	-200.000	-0.045	0.269
-380.931	-200.000	0.012	0.235
-379.917	-23.798	0.214	0.127
-378.902	800.000	-0.019	0.066
-377.888	-32.459	0.192	-0.106
-376.873	-151.276	0.121	0.009
-375.858	-88.526	0.145	0.043
-374.844	-96.249	-0.312	-0.082
-373.829	-23.466	-0.116	-0.069
-372.815	-54.182	0.341	0.153
-371.800	-200.000	-0.038	-0.176
-370.785	-200.000	0.000	0.040
-369.771	389.824	-0.099	0.203
-368.756	160.243	-0.040	-0.056
-367.742	800.000	0.061	-0.186
-366.727	-88.364	0.141	0.042
-365.712	-155.530	-0.088	-0.006
-364.698	-5.235	0.233	-0.159
-363.683	-7.470	0.186	0.125
-362.669	-134.450	-0.297	-0.036
-361.654	800.000	-0.056	0.199
-360.639	-28.974	-0.183	0.104
-359.625	-155.862	0.384	0.024
-358.610	94.018	-0.355	0.399
-357.596	-70.408	-0.248	-0.093
-356.581	208.630	0.078	-0.120
-355.566	70.490	0.234	0.240
-354.552	245.191	0.172	-0.287
-353.537	-200.000	0.008	-0.340
-352.523	-200.000	-0.075	-0.367
-351.508	-112.788	-0.211	-0.041
-350.493	-139.686	-0.368	-0.039
-349.479	251.670	0.112	0.188
-348.464	-42.361	0.156	0.079
-347.450	105.762	0.102	0.119
-346.435	-96.641	0.094	-0.024
-345.420	184.217	0.155	-0.227
-344.406	-200.000	0.025	0.140
-343.391	-42.826	0.252	0.127
-342.377	106.860	0.119	-0.140
-341.362	-95.692	-0.101	-0.027
-340.348	495.895	-0.061	-0.138
-339.333	-17.440	0.152	-0.095
-338.318	-200.000	-0.058	0.394
-337.304	176.328	0.113	0.163
-336.289	-74.683	-0.218	-0.078
-335.275	34.157	-0.108	0.093
-334.260	-24.644	0.238	0.140
-333.245	-44.404	0.120	0.059
-332.231	310.842	0.163	-0.302
-331.216	347.060	0.093	0.181
-330.202	180.563	0.081	0.117
-329.187	-16.705	0.109	-0.068
-328.172	598.620	-0.110	-0.271
-327.158	402.691	0.055	-0.114
-326.143	800.000	-0.073	0.301
-325.129	-168.100	0.020	0.001
-324.114	-31.982	-0.276	-0.153
-323.099	-200.000	0.038	-0.282
-322.085	132.754	-0.323	0.412
-321.070	262.944	-0.234	-0.401
-320.056	-5.135	-0.284	-0.193
-319.041	82.866	0.147	0.158
-318.026	-200.000	-0.049	0.324
-317.012	5.303	-0.317	-0.231
-315.997	-111.911	-0.176	-0.035
-314.983	800.000	0.051	-0.212
-313.968	-200.000	-0.030	-0.217
-312.953	177.532	-0.061	0.087
-311.939	394.237	0.066	-0.136
-310.924	-93.180	0.267	0.073
-309.910	214.498	-0.088	-0.137
-308.895	732.875	-0.093	-0.245
-307.880	243.644	0.126	-0.209
-306.866	167.853	0.019	0.026
-305.851	93.248	-0.332	-0.371
-304.837	-200.000	-0.012	-0.230
-303.822	-200.000	-0.008	0.262
-302.807	800.000	0.069	0.231
-301.793	-200.000	-0.017	-0.177
-300.778	-154.119	-0.139	-0.009
-299.764	398.257	0.190	0.393
-298.749	-200.000	0.007	0.241
-297.735	-72.261	0.256	0.094
-296.720	-200.000	0.026	-0.276
-295.705	-85.948	-0.403	0.123
-294.691	-124.364	-0.319	-0.049
-293.676	19.641	0.033	-0.026
-292.662	-79.491	-0.161	-0.054
-291.647	-139.057	0.321	0.034
-290.632	209.454	-0.017	0.026
-289.618	800.000	0.059	0.207
-288.603	655.867	-0.087	0.221
-287.589	21.143	-0.198	0.159
-286.574	-9.752	0.044	-0.029
-285.559	-86.801	-0.298	-0.090
-284.545	242.302	-0.252	0.416
-283.530	273.780	0.110	-0.192
-282.516	5.880	-0.053	0.039
-281.501	496.081	0.045	-0.103
-280.486	-182.953	0.259	-0.005
-279.472	-176.676	0.139	0.003
-278.457	-19.905	-0.030	-0.018
-277.443	351.432	0.235	-0.460
-276.428	109.572	-0.204	-0.241
-275.413	-200.000	0.027	0.138
-274.399	-200.000	0.060	-0.486
-273.384	76.209	-0.052	0.054
-272.370	721.039	-0.013	-0.034
-271.355	117.907	-0.215	-0.261
-270.340	800.000	-0.074	-0.209
-269.326	119.279	0.260	-0.317
-268.311	178.802	0.202	-0.291
-267.297	640.798	-0.070	0.177
-266.282	-81.643	0.357	0.116
-265.267	800.000	0.054	0.176
-264.253	-200.000	0.021	0.099
-263.238	-200.000	0.002	-0.192
-262.224	-143.664	-0.204	-0.019
-261.209	-159.537	0.056	0.003
-260.195	-45.290	-0.464	-0.227
-259.180	23.127	-0.071	-0.058
-258.165	800.000	0.049	0.197
-257.151	-200.000	0.024	0.171
-256.136	-200.000	0.014	0.169
-255.122	800.000	0.060	0.200
-254.107	-124.839	-0.170	0.026
-253.092	76.774	0.170	-0.178
-252.078	304.610	-0.063	-0.115
-251.063	-200.000	0.009	0.219
-250.049	-175.512	0.178	0.005
-249.034	389.210	-0.125	-0.256
-248.019	34.040	0.052	-0.045
-247.005	-164.934	0.400	0.018
-245.990	-200.000	-0.059	0.383
-244.976	-24.118	0.247	-0.145
-243.961	146.689	-0.085	-0.112
-242.946	-200.000	-0.025	-0.143
-241.932	-60.949	-0.428	0.178
-240.917	26.290	-0.144	-0.119
-239.903	503.339	-0.139	-0.317
-238.888	-1.836	-0.158	-0.110
-237.873	146.482	-0.095	0.126
-236.859	84.967	0.219	0.237
-235.844	-68.729	0.347	0.132
-234.830	800.000	-0.016	-0.055
-233.815	23.250	-0.094	0.076
-232.800	-200.000	-0.027	-0.461
-231.786	334.257	0.087	-0.166
-230.771	-44.261	-0.440	-0.217
-229.757	38.388	-0.267	-0.235
-228.742	-200.000	-0.075	-0.332
-227.727	94.521	0.151	0.169
-226.713	68.626	-0.152	0.154
-225.698	-200.000	0.031	0.394
-224.684	264.066	-0.191	-0.327
-223.669	-135.251	-0.593	-0.070
-222.655	-16.582	-0.206	-0.128
-221.640	-146.567	0.285	0.024
-220.625	-70.101	0.314	-0.118
-219.611	-200.000	-0.003	0.081
-218.596	-166.777	-0.425	-0.017
-217.582	-200.000	0.036	0.155
-216.567	349.489	-0.068	-0.133
-215.552	-82.066	0.222	0.071
-214.538	-131.619	0.257	-0.033
-213.523	11.743	-0.312	-0.236
-212.509	90.153	0.106	0.117
-211.494	-200.000	0.007	0.036
-210.479	-64.367	-0.307	-0.123
-209.465	752.987	0.106	0.281
-208.450	94.526	-0.105	0.117
-207.436	-37.368	0.230	-0.121
-206.421	-170.874	-0.085	-0.003
-205.406	-77.729	0.180	0.061
-204.392	-77.001	-0.110	0.038
-203.377	117.569	0.172	-0.208
-202.363	227.401	0.142	0.226
-201.348	-167.568	0.200	-0.008
-200.333	800.000	-0.070	0.193
-199.319	-106.417	0.169	-0.037
-198.304	167.406	-0.079	0.110
-197.290	361.349	-0.168	-0.331
-196.275	-59.526	0.425	0.180
-195.260	-85.507	0.222	0.068
-194.246	-98.385	-0.145	-0.036
-193.231	-33.832	0.195	0.106
-192.217	535.109	0.067	0.155
-191.202	240.425	0.059	0.097
-190.187	-200.000	0.004	0.708
-189.173	-130.735	-0.072	0.010
-188.158	-200.000	-0.054	0.247
-187.144	84.123	-0.265	0.285
-186.129	346.261	0.167	-0.324
-185.114	349.334	0.057	0.110
-184.100	-11.425	0.235	-0.152
-183.085	346.300	-0.165	-0.319
-182.071	-4.410	0.211	0.143
-181.056	-200.000	-0.033	-0.295
-180.042	-200.000	0.040	-0.183
-179.027	27.123	-0.068	-0.056
-178.012	55.967	0.393	-0.375
-176.998	800.000	-0.070	0.266
-175.983	215.209	0.015	0.023
-174.969	-22.966	-0.192	0.114
-173.954	59.287	0.263	0.255
-172.939	-116.669	-0.210	0.038
-171.925	-116.777	-0.186	-0.034
-170.910	800.000	0.063	0.206
-169.896	305.897	0.106	0.195
-168.881	86.463	0.173	0.187
-167.866	-197.499	-0.132	-0.001
-166.852	5.760	-0.417	0.303
-165.837	-101.366	0.277	-0.066
-164.823	240.897	-0.176	0.288
-163.808	800.000	-0.058	0.181
-162.793	-84.754	0.146	0.045
-161.779	-94.833	-0.272	0.072
-160.764	-200.000	0.045	-0.265
-159.750	800.000	0.113	-0.351
-158.735	-200.000	-0.026	-0.179
-157.720	350.040	0.170	0.330
-156.706	800.000	-0.062	-0.242
-155.691	-115.919	-0.178	0.033
-154.677	102.004	0.114	0.131
-153.662	133.378	-0.044	-0.055
-152.647	-64.982	0.210	-0.083
-151.633	681.439	0.020	-0.052
-150.618	-200.000	0.049	0.331
-149.604	800.000	0.074	-0.245
-148.589	73.407	-0.090	0.092
-147.574	-72.381	-0.271	-0.099
-146.560	-74.401	0.157	-0.055
-145.545	172.484	0.207	0.292
-144.531	10.024	0.130	0.097
-143.516	261.212	-0.097	-0.164
-142.502	-56.188	-0.153	-0.067
-141.487	561.899	0.125	0.298
-140.472	800.000	-0.045	0.145
-139.458	-145.684	0.250	-0.022
-138.443	800.000	0.107	-0.340
-137.429	-40.293	-0.197	-0.101
-136.414	-34.756	-0.247	0.132
-135.399	55.863	0.099	-0.094
-134.385	-89.802	0.148	0.043
-133.370	-54.563	-0.169	-0.075
-132.356	-98.278	-0.151	0.038
-131.341	-200.000	-0.020	-0.117
-130.326	800.000	0.088	-0.266
-129.312	-7.762	0.227	0.151
-128.297	-8.897	-0.193	-0.127
-127.283	-20.982	-0.206	-0.124
-126.268	-87.474	0.194	-0.058
-125.253	-95.189	-0.142	0.038
-124.239	-120.185	0.196	-0.033
-123.224	-73.826	-0.152	-0.054
-122.210	-76.184	-0.137	-0.047
