DTS Sentinel unit serial number:	SN413079Multiplexer serial number:	ORYXHardware model number:	OX4-SRSoftware version number:	ORYX F/W v4.00 Oryx Data Collector v3.7.2.0data status	okinstallation	princeton_trtdifferential loss correction	single-endedforward channel	channel 1reverse channel	N/Adate	2019/09/14time	12:10:35forward acquisition time	60.00reverse acquisition time	0.00gamma	496.2192k internal	0.2295k external	0.2295temperature offset calibration	1.0090default loss term (dB/km)	0.3790temperature slope calibration	1.0000multiplexer offset coefficient	1.0000multiplexer slope coefficient	1.0000fibre end	0.00T internal ref (°C)	37.56T ext. ref 1 (°C)	4.70T ext. ref 2 (°C)	33.22length (m)	temperature (°C)	Stokes	anti-Stokes-747.200	-200.000	-0.011	0.119
-746.185	36.012	0.138	0.124
-745.171	-200.000	0.039	-0.335
-744.156	-200.000	-0.010	0.088
-743.142	36.279	0.125	-0.113
-742.127	561.061	0.040	0.098
-741.112	184.184	-0.250	-0.378
-740.098	800.000	0.045	-0.191
-739.083	-145.855	0.110	0.010
-738.069	-200.000	-0.039	0.346
-737.054	-200.000	0.004	0.028
-736.039	-139.664	-0.316	0.034
-735.025	-120.527	-0.160	0.028
-734.010	-35.853	-0.149	0.083
-732.996	8.177	-0.090	-0.069
-731.981	139.966	0.227	-0.305
-730.966	-61.490	-0.217	-0.093
-729.952	204.959	-0.125	-0.199
-728.937	73.891	0.213	-0.228
-727.923	-200.000	-0.016	-0.227
-726.908	-10.764	0.077	-0.052
-725.894	-200.000	-0.001	-0.445
-724.879	-200.000	-0.024	-0.203
-723.864	800.000	-0.087	0.246
-722.850	188.812	-0.073	-0.112
-721.835	39.143	-0.377	-0.345
-720.821	-200.000	0.047	-0.370
-719.806	54.076	-0.067	-0.065
-718.791	-104.048	-0.465	-0.111
-717.777	-35.811	0.223	-0.123
-716.762	215.144	-0.275	-0.445
-715.748	-200.000	-0.046	-0.220
-714.733	-28.984	0.221	0.130
-713.718	2.603	0.220	-0.163
-712.704	88.297	0.284	-0.322
-711.689	457.366	-0.200	-0.454
-710.675	181.273	-0.107	-0.161
-709.660	155.042	0.051	-0.072
-708.645	-128.153	0.364	0.053
-707.631	48.968	0.381	0.365
-706.616	282.719	0.082	-0.150
-705.602	-65.990	-0.072	0.029
-704.587	-136.251	0.310	-0.037
-703.572	66.086	-0.159	0.165
-702.558	31.766	0.083	-0.073
-701.543	-200.000	0.018	-0.280
-700.529	-200.000	0.019	-0.290
-699.514	176.795	-0.027	0.040
-698.499	-0.546	0.237	0.172
-697.485	342.713	-0.115	0.230
-696.470	800.000	-0.042	-0.186
-695.456	800.000	-0.092	-0.328
-694.441	-200.000	0.036	-0.190
-693.426	-200.000	-0.008	0.143
-692.412	159.308	0.222	-0.315
-691.397	-13.915	0.198	0.131
-690.383	-200.000	-0.030	0.227
-689.368	-169.589	-0.317	-0.012
-688.354	800.000	-0.032	-0.142
-687.339	-200.000	-0.010	-0.233
-686.324	-200.000	0.003	-0.112
-685.310	444.937	-0.130	0.292
-684.295	-181.893	-0.243	-0.005
-683.281	416.850	0.074	-0.161
-682.266	-154.049	0.274	0.019
-681.251	127.658	-0.092	0.119
-680.237	329.669	-0.108	-0.212
-679.222	-96.591	-0.180	0.048
-678.208	541.779	0.080	0.194
-677.193	-183.467	-0.171	-0.003
-676.178	-56.733	-0.119	-0.054
-675.164	-200.000	0.008	-0.219
-674.149	-40.515	-0.132	0.070
-673.135	310.642	-0.095	0.181
-672.120	72.800	-0.339	-0.360
-671.105	1.993	0.229	-0.168
-670.091	-200.000	-0.016	-0.183
-669.076	-57.438	-0.328	-0.147
-668.062	12.293	-0.121	0.095
-667.047	144.849	-0.078	0.106
-666.032	632.899	-0.045	-0.115
-665.018	-31.498	0.138	-0.079
-664.003	-70.846	-0.273	-0.105
-662.989	-41.006	-0.188	-0.099
-661.974	-60.636	0.090	-0.039
-660.959	800.000	-0.040	0.142
-659.945	60.665	-0.135	0.136
-658.930	-19.855	0.228	-0.144
-657.916	247.703	0.045	-0.077
-656.901	800.000	-0.006	0.018
-655.886	265.042	-0.213	0.378
-654.872	-200.000	-0.015	-0.104
-653.857	33.796	-0.124	0.110
-652.843	-32.196	-0.102	0.058
-651.828	-29.427	0.110	-0.064
-650.814	104.648	0.163	0.196
-649.799	500.973	0.042	0.100
-648.784	527.464	-0.118	-0.282
-647.770	62.682	0.313	-0.319
-646.755	176.116	-0.117	0.173
-645.741	160.280	0.074	0.106
-644.726	-200.000	0.018	0.349
-643.711	-200.000	-0.004	0.054
-642.697	344.592	-0.028	-0.056
-641.682	800.000	0.030	-0.129
-640.668	-24.455	-0.289	-0.175
-639.653	331.395	0.265	-0.520
-638.638	800.000	0.062	-0.220
-637.624	451.712	-0.081	0.181
-636.609	-35.165	0.137	-0.076
-635.595	13.958	-0.050	-0.040
-634.580	36.508	-0.207	-0.186
-633.565	-104.905	-0.232	-0.054
-632.551	512.553	-0.173	0.409
-631.536	351.635	-0.038	-0.077
-630.522	311.030	0.111	-0.212
-629.507	-51.569	0.121	-0.057
-628.492	252.876	-0.123	0.214
-627.478	356.828	-0.043	0.088
-626.463	16.554	-0.171	-0.138
-625.449	-103.889	-0.463	-0.110
-624.434	-99.442	-0.193	-0.049
-623.419	2.035	-0.114	0.084
-622.405	-46.832	-0.358	-0.178
-621.390	800.000	0.075	-0.251
-620.376	-152.523	-0.137	-0.010
-619.361	-200.000	0.002	0.204
-618.346	-40.327	-0.170	-0.090
-617.332	66.428	0.244	-0.252
-616.317	-200.000	0.000	-0.027
-615.303	192.222	-0.186	0.286
-614.288	43.538	-0.218	-0.203
-613.273	26.085	0.050	0.043
-612.259	-200.000	-0.030	0.162
-611.244	-175.741	0.227	-0.006
-610.230	800.000	0.072	-0.235
-609.215	-200.000	0.059	-0.373
-608.201	-200.000	-0.018	-0.170
-607.186	-141.101	0.274	0.029
-606.171	800.000	-0.037	-0.126
-605.157	227.922	0.128	0.213
-604.142	327.702	0.097	0.190
-603.128	34.398	-0.181	-0.161
-602.113	-89.493	0.281	0.084
-601.098	-86.293	0.460	-0.144
-600.084	-40.262	-0.199	-0.105
-599.069	-30.950	0.205	-0.118
-598.055	-200.000	0.005	0.082
-597.040	583.594	0.147	0.366
-596.025	-53.105	-0.178	0.083
-595.011	-97.578	-0.262	0.069
-593.996	18.028	-0.076	0.062
-592.982	800.000	-0.072	0.248
-591.967	-50.838	0.170	-0.081
-590.952	102.055	0.111	0.132
-589.938	-200.000	-0.010	-0.052
-588.923	112.629	-0.050	-0.061
-587.909	-24.389	-0.149	0.090
-586.894	-7.062	-0.055	0.038
-585.879	-24.720	-0.151	0.091
-584.865	-200.000	-0.007	-0.044
-583.850	-200.000	0.029	-0.400
-582.836	-161.806	-0.262	0.014
-581.821	-53.727	-0.100	0.047
-580.806	-165.111	0.169	0.008
-579.792	-88.160	-0.120	-0.037
-578.777	-122.346	-0.264	-0.044
-577.763	-129.572	0.096	0.013
-576.748	193.028	-0.184	-0.283
-575.733	-115.599	0.081	0.016
-574.719	178.967	0.149	-0.222
-573.704	-200.000	0.015	-0.287
-572.690	-94.052	-0.107	0.030
-571.675	-76.336	-0.319	0.114
-570.661	58.639	-0.178	-0.177
-569.646	573.117	-0.105	0.259
-568.631	121.643	0.042	-0.053
-567.617	56.178	-0.136	-0.134
-566.602	155.127	-0.086	-0.120
-565.588	425.146	-0.024	0.052
-564.573	0.984	0.158	0.115
-563.558	-116.746	-0.344	-0.064
-562.544	-142.981	0.468	-0.046
-561.529	34.724	0.075	0.067
-560.515	-20.374	-0.148	-0.092
-559.500	-200.000	0.033	0.433
-558.485	-40.986	-0.137	-0.072
-557.471	-200.000	-0.042	-0.368
-556.456	156.344	-0.120	-0.167
-555.442	199.972	0.149	-0.232
-554.427	619.962	-0.123	0.314
-553.412	329.787	0.130	-0.253
-552.398	61.149	-0.225	-0.227
-551.383	27.444	-0.244	-0.208
-550.369	-126.701	0.303	-0.046
-549.354	114.019	-0.220	0.271
-548.339	639.224	0.129	-0.333
-547.325	-93.625	0.380	0.106
-546.310	-6.238	-0.139	-0.096
-545.296	-129.747	-0.288	-0.040
-544.281	106.414	0.200	-0.240
-543.266	11.554	0.089	0.070
-542.252	-200.000	-0.183	0.000
-541.237	-200.000	-0.015	-0.068
-540.223	141.912	-0.420	0.564
-539.208	-23.967	-0.126	-0.077
-538.193	-53.751	-0.253	-0.117
-537.179	244.139	0.083	0.141
-536.164	-43.136	-0.248	0.128
-535.150	-200.000	0.035	0.258
-534.135	71.694	-0.082	0.087
-533.121	800.000	0.058	-0.252
-532.106	-52.910	0.339	0.158
-531.091	-154.972	0.079	0.005
-530.077	225.779	0.067	-0.109
-529.062	-28.313	0.202	0.118
-528.048	346.526	0.096	0.191
-527.033	-200.000	-0.004	0.127
-526.018	-200.000	-0.056	-0.355
-525.004	-125.588	-0.403	-0.062
-523.989	-166.382	0.189	0.008
-522.975	-175.214	0.072	0.002
-521.960	650.692	-0.048	0.124
-520.945	-200.000	-0.002	0.280
-519.931	128.689	0.117	0.152
-518.916	800.000	0.025	-0.082
-517.902	290.606	0.140	-0.258
-516.887	136.237	0.134	-0.176
-515.872	800.000	-0.068	0.203
-514.858	800.000	-0.084	0.320
-513.843	800.000	-0.047	0.137
-512.829	-200.000	0.001	-0.078
-511.814	154.313	0.059	-0.082
-510.799	390.834	-0.178	-0.375
-509.785	128.031	-0.082	-0.105
-508.770	-120.724	-0.263	0.045
-507.756	-200.000	-0.022	-0.169
-506.741	-81.385	0.209	-0.070
-505.726	-79.650	-0.091	0.031
-504.712	-72.416	0.043	-0.016
-503.697	-69.733	-0.303	0.117
-502.683	9.282	-0.039	0.030
-501.668	-200.000	0.004	-0.054
-500.653	-199.313	-0.157	0.001
-499.639	-97.965	0.264	0.069
-498.624	-97.777	-0.172	0.045
-497.610	-133.363	0.177	-0.023
-496.595	589.902	0.034	0.085
-495.581	172.506	-0.202	-0.294
-494.566	-200.000	0.018	0.153
-493.551	-16.999	-0.143	-0.091
-492.537	517.841	-0.027	0.065
-491.522	22.711	0.069	-0.057
-490.508	-78.913	0.115	0.040
-489.493	102.324	0.221	-0.262
-488.478	595.659	0.056	-0.140
-487.464	147.305	0.247	0.337
-486.449	-200.000	-0.105	0.484
-485.435	-125.748	-0.260	-0.040
-484.420	-82.430	-0.228	0.075
-483.405	-91.870	-0.032	-0.009
-482.391	3.009	-0.268	0.197
-481.376	-19.221	0.112	0.071
-480.362	27.972	-0.198	-0.169
-479.347	800.000	-0.070	0.255
-478.332	765.685	0.094	0.259
-477.318	-97.996	0.276	0.072
-476.303	-101.433	-0.184	-0.045
-475.289	-200.000	0.031	0.279
-474.274	44.798	0.264	-0.245
-473.259	-200.000	0.090	0.417
-472.245	215.853	-0.184	0.296
-471.230	-80.288	-0.380	0.128
-470.216	261.747	-0.161	0.281
-469.201	343.959	-0.104	-0.206
-468.186	-83.286	0.277	0.090
-467.172	-66.966	-0.303	-0.121
-466.157	335.713	0.170	0.333
-465.143	-136.212	0.255	0.030
-464.128	-200.000	0.095	-0.627
-463.113	-200.000	-0.013	0.258
-462.099	-150.098	0.256	-0.020
-461.084	4.996	0.197	0.146
-460.070	175.536	0.119	-0.175
-459.055	800.000	-0.102	-0.358
-458.040	-129.453	0.204	0.029
-457.026	452.804	0.110	0.245
-456.011	77.528	-0.196	0.211
-454.997	111.510	0.153	-0.187
-453.982	800.000	0.049	-0.158
-452.968	-200.000	0.002	-0.024
-451.953	320.320	-0.055	0.106
-450.938	-117.002	-0.199	0.037
-449.924	452.457	-0.106	0.238
-448.909	-200.000	-0.368	-0.001
-447.895	-65.173	0.463	0.189
-446.880	-132.545	0.206	0.027
-445.865	93.136	0.140	0.160
-444.851	-20.432	-0.410	0.255
-443.836	-144.682	0.111	-0.010
-442.822	113.389	0.088	0.108
-441.807	-69.325	0.105	0.041
-440.792	95.872	-0.156	0.180
-439.778	327.185	-0.062	-0.119
-438.763	80.332	-0.251	-0.273
-437.749	80.340	0.276	0.300
-436.734	56.688	0.073	0.072
-435.719	-83.118	-0.221	-0.072
-434.705	-200.000	0.000	-0.062
-433.690	-200.000	0.050	-0.224
-432.676	-4.886	-0.060	0.042
-431.661	-111.449	-0.028	-0.006
-430.646	400.200	-0.106	-0.225
-429.632	-82.033	-0.143	-0.047
-428.617	365.610	0.103	-0.209
-427.603	-200.000	0.022	-0.364
-426.588	-200.000	0.046	-0.278
-425.573	-200.000	0.074	-0.375
-424.559	481.292	0.108	-0.248
-423.544	-21.643	0.311	-0.191
-422.530	58.706	-0.110	0.109
-421.515	372.699	-0.057	-0.117
-420.500	-140.517	-0.220	-0.023
-419.486	-15.910	0.199	0.128
-418.471	-114.922	0.130	-0.025
-417.457	-200.000	-0.011	0.222
-416.442	99.003	0.182	-0.212
-415.428	-165.878	-0.358	-0.015
-414.413	82.762	0.194	-0.213
-413.398	-200.000	0.065	0.393
-412.384	145.700	-0.052	0.070
-411.369	-9.179	0.060	0.040
-410.355	25.546	-0.108	0.090
-409.340	23.972	-0.248	-0.207
-408.325	133.761	0.085	0.111
-407.311	-66.435	-0.209	0.084
-406.296	-57.912	-0.251	0.110
-405.282	-200.000	0.001	0.274
-404.267	-39.781	0.081	0.043
-403.252	4.783	0.104	-0.077
-402.238	-76.200	0.294	-0.104
-401.223	-179.893	0.147	-0.003
-400.209	-79.770	0.262	0.089
-399.194	68.847	0.296	-0.306
-398.179	-200.000	0.001	0.017
-397.165	-127.878	0.388	-0.056
-396.150	-200.000	0.050	0.274
-395.136	563.166	0.105	0.257
-394.121	800.000	-0.015	0.051
-393.106	-95.252	-0.169	-0.046
-392.092	-82.715	0.292	-0.095
-391.077	160.190	-0.014	0.020
-390.063	33.835	0.229	-0.201
-389.048	-71.043	0.160	-0.061
-388.033	800.000	-0.131	-0.390
-387.019	-82.872	-0.329	-0.107
-386.004	-95.743	-0.131	0.035
-384.990	223.803	-0.100	-0.162
-383.975	-39.496	0.232	0.122
-382.960	-200.000	-0.060	-0.370
-381.946	-151.299	-0.341	-0.026
-380.931	-143.140	0.161	0.016
-379.917	-200.000	0.068	0.455
-378.902	-71.652	-0.087	-0.033
-377.888	147.398	-0.044	0.059
-376.873	-200.000	0.071	-0.568
-375.858	-54.301	0.129	0.059
-374.844	-200.000	0.045	0.369
-373.829	-134.593	-0.357	-0.044
-372.815	0.017	-0.229	0.164
-371.800	-9.879	0.020	-0.013
-370.785	-130.913	0.121	-0.016
-369.771	-193.152	0.081	-0.001
-368.756	-9.879	-0.060	-0.040
-367.742	106.639	0.130	0.155
-366.727	-125.645	-0.156	-0.024
-365.712	800.000	-0.042	-0.117
-364.698	384.541	0.089	-0.185
-363.683	-132.485	0.055	0.007
-362.669	800.000	0.137	-0.424
-361.654	-200.000	0.044	0.280
-360.639	-159.985	0.179	-0.010
-359.625	-200.000	0.000	0.009
-358.610	-112.660	0.177	-0.035
-357.596	-200.000	0.061	0.276
-356.581	753.458	-0.029	-0.078
-355.566	-18.634	-0.043	-0.027
-354.552	800.000	-0.057	-0.200
-353.537	72.483	0.124	-0.130
-352.523	800.000	0.040	-0.157
-351.508	-168.121	0.307	-0.012
-350.493	-200.000	0.006	0.081
-349.479	-163.731	0.175	-0.008
-348.464	-68.869	0.191	-0.074
-347.450	-200.000	-0.054	-0.371
-346.435	-200.000	-0.020	0.095
-345.420	92.577	0.190	-0.216
-344.406	201.701	0.093	-0.145
-343.391	-180.082	-0.133	0.003
-342.377	40.941	-0.186	0.169
-341.362	-84.752	-0.262	0.083
-340.348	-102.072	0.358	0.087
-339.333	-141.052	-0.173	0.018
-338.318	11.868	-0.138	-0.107
-337.304	3.950	-0.106	0.078
-336.289	-75.916	-0.112	-0.040
-335.275	102.360	0.050	-0.059
-334.260	-9.782	0.205	-0.137
-333.245	-52.080	0.382	-0.179
-332.231	261.008	-0.155	0.269
-331.216	39.734	0.253	0.228
-330.202	156.277	0.257	0.357
-329.187	800.000	-0.043	-0.133
-328.172	252.370	0.069	0.118
-327.158	800.000	-0.086	0.343
-326.143	-71.076	-0.245	-0.093
-325.129	47.993	-0.185	0.174
-324.114	800.000	-0.088	0.286
-323.099	-152.019	-0.154	0.011
-322.085	-85.118	0.177	-0.056
-321.070	-61.970	0.400	0.168
-320.056	39.755	0.123	0.111
-319.041	-200.000	-0.002	0.018
-318.026	30.151	-0.205	-0.175
-317.012	111.033	-0.205	-0.249
-315.997	265.036	0.090	-0.158
-314.983	-200.000	0.005	0.180
-313.968	-23.215	0.266	-0.161
-312.953	7.210	0.240	0.180
-311.939	-38.521	-0.073	0.039
-310.924	-65.427	-0.254	0.103
-309.910	121.583	0.077	0.096
-308.895	-104.482	-0.241	-0.056
-307.880	-200.000	-0.013	-0.227
-306.866	-129.826	0.197	0.027
-305.851	-37.618	-0.054	0.029
-304.837	800.000	0.065	0.266
-303.822	-13.068	0.156	0.102
-302.807	-2.111	0.201	-0.142
-301.793	40.151	0.087	0.079
-300.778	444.806	-0.134	0.295
-299.764	-102.765	0.262	0.063
-298.749	800.000	0.156	-0.517
-297.735	103.948	-0.170	-0.201
-296.720	-200.000	0.001	0.054
-295.705	78.726	-0.109	0.117
-294.691	272.830	-0.116	-0.206
-293.676	130.645	0.260	-0.335
-292.662	552.321	-0.065	-0.156
-291.647	61.101	-0.189	0.188
-290.632	-200.000	0.013	-0.157
-289.618	-174.115	-0.135	0.004
-288.603	-32.266	0.161	0.090
-287.589	555.835	0.006	0.015
-286.574	311.509	0.086	-0.162
-285.559	351.187	0.135	-0.269
-284.545	-78.898	0.104	-0.035
-283.530	-200.000	0.044	0.351
-282.516	-200.000	0.022	-0.116
-281.501	333.652	0.109	-0.211
-280.486	468.275	0.110	-0.248
-279.472	150.205	0.236	-0.322
-278.457	-159.729	0.308	-0.017
-277.443	233.470	-0.177	-0.293
-276.428	-69.538	-0.183	0.070
-275.413	-4.662	-0.128	0.089
-274.399	-137.502	0.140	-0.016
-273.384	383.259	-0.117	0.241
-272.370	-200.000	-0.033	0.284
-271.355	365.318	0.101	0.205
-270.340	-200.000	0.002	0.015
-269.326	800.000	0.038	-0.107
-268.311	-134.211	-0.161	0.020
-267.297	-10.052	-0.166	0.111
-266.282	-200.000	-0.016	-0.225
-265.267	445.241	0.070	0.155
-264.253	-2.504	-0.175	0.123
-263.238	-184.766	0.327	-0.005
-262.224	-163.755	-0.193	0.009
-261.209	-78.869	-0.144	0.049
-260.195	-200.000	-0.011	-0.092
-259.180	-200.000	-0.006	0.242
-258.165	-46.121	-0.099	0.049
-257.151	-106.280	0.345	-0.078
-256.136	-114.050	0.166	-0.032
-255.122	-137.421	-0.279	-0.032
-254.107	98.225	0.188	0.218
-253.092	21.933	-0.207	-0.170
-252.078	100.417	0.139	-0.162
-251.063	-143.195	0.064	0.006
-250.049	237.583	-0.036	0.059
-249.034	-145.960	0.118	0.010
-248.019	-47.667	-0.290	0.141
-247.005	193.233	-0.185	0.280
-245.990	-21.650	-0.082	0.050
-244.976	137.376	-0.184	0.241
-243.961	33.881	-0.118	0.103
-242.946	800.000	0.013	0.054
-241.932	167.939	0.101	-0.144
-240.917	498.076	0.053	-0.121
-239.903	776.834	0.116	-0.318
-238.888	800.000	-0.061	0.250
-237.873	-85.787	-0.361	0.112
-236.859	-89.310	0.363	0.107
-235.844	-113.439	-0.143	-0.028
-234.830	181.850	-0.044	0.066
-233.815	-80.914	-0.355	-0.118
-232.800	-200.000	0.004	-0.067
-231.786	215.823	-0.032	-0.051
-230.771	24.280	-0.104	-0.086
-229.757	84.876	-0.192	-0.211
-228.742	-30.385	0.440	0.250
-227.727	375.784	0.190	0.388
-226.713	-2.179	0.104	-0.073
-225.698	-153.709	0.147	0.010
-224.684	133.920	0.183	0.237
-223.669	-139.038	0.183	0.020
-222.655	62.995	0.110	0.110
-221.640	-27.043	-0.221	-0.129
-220.625	-79.799	-0.141	0.048
-219.611	771.055	0.078	0.214
-218.596	-128.812	0.239	0.034
-217.582	-200.000	0.008	0.220
-216.567	-92.871	0.063	-0.018
-215.552	-200.000	0.009	0.151
-214.538	144.707	0.223	0.298
-213.523	-7.941	-0.157	-0.106
-212.509	60.008	0.164	0.162
-211.494	-4.976	-0.407	-0.281
-210.479	-200.000	0.004	0.155
-209.465	-53.960	-0.350	0.160
-208.450	800.000	0.043	0.179
-207.436	-155.234	0.235	0.015
-206.421	60.777	0.334	-0.331
-205.406	257.200	-0.166	0.285
-204.392	223.663	0.077	0.124
-203.377	163.323	-0.125	0.176
-202.363	9.755	-0.206	0.156
-201.348	79.290	-0.208	0.223
-200.333	-124.074	-0.359	-0.056
-199.319	50.498	0.078	0.074
-198.304	-89.659	-0.080	0.023
-197.290	800.000	0.036	-0.122
-196.275	-105.707	0.211	-0.048
-195.260	-44.573	0.226	-0.113
-194.246	185.079	-0.096	-0.143
-193.231	363.882	0.158	0.317
-192.217	61.833	-0.196	0.195
-191.202	-71.190	-0.224	0.084
-190.187	-74.403	0.336	0.121
-189.173	-36.976	-0.165	-0.088
-188.158	-200.000	0.003	0.201
-187.144	-30.198	0.288	0.164
-186.129	593.458	0.116	-0.288
-185.114	-200.000	-0.004	0.088
-184.100	126.049	-0.046	-0.058
-183.085	77.195	-0.216	0.230
-182.071	800.000	-0.023	-0.079
-181.056	3.987	0.228	0.166
-180.042	48.022	0.206	0.193
-179.027	126.816	0.180	0.228
-178.012	-43.837	0.210	-0.106
-176.998	800.000	-0.091	-0.291
-175.983	-105.203	0.215	-0.049
-174.969	-164.314	0.334	0.015
-173.954	680.684	0.001	0.002
-172.939	-200.000	-0.009	-0.335
-171.925	-72.749	-0.221	-0.081
-170.910	-102.741	-0.237	-0.057
-169.896	-53.992	0.185	0.084
-168.881	-107.398	-0.340	0.075
-167.866	360.366	0.081	0.162
-166.852	597.345	-0.095	-0.236
-165.837	-145.543	-0.239	-0.021
-164.823	800.000	-0.011	0.033
-163.808	-77.653	-0.204	-0.070
-162.793	-182.734	0.280	0.005
-161.779	299.599	-0.174	-0.320
-160.764	41.248	0.174	-0.157
-159.750	80.191	-0.052	0.056
-158.735	-153.358	0.299	0.021
-157.720	74.540	-0.329	-0.346
-156.706	54.574	0.123	-0.118
-155.691	-76.074	0.135	0.048
-154.677	800.000	-0.076	0.228
-153.662	-22.106	-0.208	0.126
-152.647	-115.169	-0.049	0.009
-151.633	431.363	-0.064	-0.139
-150.618	-200.000	-0.005	-0.031
-149.604	180.590	-0.119	0.175
-148.589	210.204	0.146	0.229
-147.574	391.334	0.166	-0.344
-146.560	-200.000	0.020	-0.229
-145.545	-80.660	0.163	0.054
-144.531	397.566	-0.104	0.216
-143.516	57.968	0.158	0.154
-142.502	-200.000	-0.008	-0.111
-141.487	245.227	-0.178	-0.299
-140.472	204.249	-0.043	0.066
-139.458	-91.531	-0.182	0.052
-138.443	-106.183	0.137	0.031
-137.429	-200.000	0.015	0.314
-136.414	800.000	-0.014	-0.049
-135.399	-200.000	-0.017	-0.097
-134.385	-45.142	-0.150	-0.075
-133.370	800.000	0.124	-0.388
-132.356	-174.590	-0.145	-0.004
-131.341	-200.000	0.007	0.057
-130.326	-44.160	0.078	0.039
-129.312	750.159	-0.056	-0.152
-128.297	31.556	-0.121	0.104
-127.283	-68.140	-0.238	0.092
-126.268	-22.737	0.244	-0.147
-125.253	214.599	0.104	-0.164
-124.239	162.467	-0.127	-0.177
-123.224	-42.202	0.298	0.152
-122.210	93.668	-0.057	-0.065
-121.195	-200.000	-0.012	0.223
