DTS Sentinel unit serial number:	SN413079Multiplexer serial number:	ORYXHardware model number:	OX4-SRSoftware version number:	ORYX F/W v4.00 Oryx Data Collector v3.7.2.0data status	okinstallation	princeton_trtdifferential loss correction	single-endedforward channel	channel 1reverse channel	N/Adate	2019/09/11time	18:08:11forward acquisition time	60.00reverse acquisition time	0.00gamma	496.2192k internal	0.2291k external	0.2291temperature offset calibration	1.0002default loss term (dB/km)	0.3790temperature slope calibration	1.0000multiplexer offset coefficient	1.0000multiplexer slope coefficient	1.0000fibre end	0.00T internal ref (°C)	44.02T ext. ref 1 (°C)	1.15T ext. ref 2 (°C)	38.79length (m)	temperature (°C)	Stokes	anti-Stokes-747.200	194.460	-0.138	0.215
-746.185	-81.363	-0.186	0.063
-745.171	800.000	-0.047	-0.182
-744.156	-109.363	0.083	-0.018
-743.142	-187.473	-0.054	-0.001
-742.127	800.000	0.055	-0.169
-741.112	385.738	0.120	0.254
-740.098	231.501	-0.013	-0.022
-739.083	-166.612	0.139	-0.006
-738.069	800.000	0.057	0.231
-737.054	155.211	-0.259	0.365
-736.039	-198.058	-0.199	-0.001
-735.025	93.192	0.204	0.237
-734.010	-25.763	0.136	0.082
-732.996	421.855	-0.076	-0.168
-731.981	-200.000	0.033	0.187
-730.966	-78.669	-0.087	0.030
-729.952	-195.852	-0.160	0.001
-728.937	147.439	-0.118	0.163
-727.923	-86.899	-0.078	0.024
-726.908	-200.000	-0.036	-0.163
-725.894	226.953	-0.134	-0.223
-724.879	-200.000	-0.074	-0.420
-723.864	-200.000	0.022	0.163
-722.850	9.939	-0.058	0.045
-721.835	-181.255	0.118	-0.002
-720.821	276.642	0.065	0.118
-719.806	150.852	-0.217	0.302
-718.791	-130.116	0.147	0.020
-717.777	800.000	0.174	-0.754
-716.762	-99.030	0.069	0.018
-715.748	-151.022	0.227	0.017
-714.733	604.915	-0.041	-0.105
-713.718	-134.434	-0.327	-0.041
-712.704	164.668	-0.357	0.515
-711.689	175.917	-0.183	0.272
-710.675	-112.523	-0.098	-0.020
-709.660	151.136	0.220	-0.306
-708.645	800.000	-0.096	0.315
-707.631	-200.000	0.019	0.217
-706.616	95.092	-0.296	0.344
-705.602	-131.409	-0.245	0.033
-704.587	-10.935	-0.163	0.110
-703.572	-52.521	0.313	-0.148
-702.558	127.314	-0.226	-0.293
-701.543	-56.994	-0.274	-0.124
-700.529	35.002	-0.197	-0.177
-699.514	-135.318	-0.160	0.020
-698.499	325.637	0.183	0.358
-697.485	-33.210	-0.237	-0.134
-696.470	148.489	0.130	-0.179
-695.456	38.365	-0.099	0.091
-694.441	-63.797	-0.409	-0.171
-693.426	100.513	-0.196	-0.233
-692.412	-200.000	-0.005	0.203
-691.397	-147.169	-0.536	-0.047
-690.383	325.816	0.055	-0.108
-689.368	164.969	-0.106	-0.153
-688.354	-200.000	0.022	-0.249
-687.339	-64.685	0.068	0.028
-686.324	-139.966	-0.087	0.009
-685.310	2.065	0.238	0.175
-684.295	-28.125	-0.224	0.132
-683.281	120.428	0.103	-0.131
-682.266	380.335	0.092	0.192
-681.251	-200.000	0.024	-0.140
-680.237	-200.000	-0.018	-0.312
-679.222	48.340	0.314	0.300
-678.208	-74.003	-0.044	0.016
-677.193	144.491	-0.138	0.188
-676.178	-155.189	-0.211	-0.014
-675.164	-28.846	0.094	-0.055
-674.149	-107.355	-0.271	0.061
-673.135	-100.647	-0.139	-0.035
-672.120	-20.245	-0.280	-0.176
-671.105	117.876	-0.164	-0.207
-670.091	-81.792	0.233	-0.078
-669.076	800.000	-0.009	-0.028
-668.062	166.896	0.077	0.111
-667.047	247.508	-0.218	-0.375
-666.032	48.257	0.145	0.139
-665.018	800.000	0.079	0.239
-664.003	43.582	0.075	0.070
-662.989	56.351	-0.182	-0.181
-661.974	-131.209	0.276	-0.037
-660.959	-69.702	0.165	0.065
-659.945	242.312	-0.112	0.191
-658.930	284.232	0.064	-0.118
-657.916	70.217	-0.109	0.115
-656.901	-160.040	0.307	0.017
-655.886	90.213	0.094	0.107
-654.872	558.406	-0.105	-0.258
-653.857	-200.000	-0.022	-0.196
-652.843	-107.209	-0.113	0.026
-651.828	-105.590	0.344	0.080
-650.814	-139.072	0.205	0.023
-649.799	-112.950	0.192	0.039
-648.784	-119.774	0.208	0.037
-647.770	800.000	-0.106	0.346
-646.755	-200.000	0.075	0.385
-645.741	-83.541	-0.461	-0.151
-644.726	363.009	0.116	-0.237
-643.711	-200.000	-0.013	0.067
-642.697	74.196	0.139	-0.149
-641.682	-145.501	0.167	-0.015
-640.668	800.000	0.038	-0.110
-639.653	7.207	-0.170	-0.129
-638.638	342.085	0.079	-0.157
-637.624	-200.000	-0.028	-0.393
-636.609	256.532	0.002	0.003
-635.595	-80.870	0.100	-0.034
-634.580	-139.599	-0.244	0.027
-633.565	-200.000	0.031	0.144
-632.551	800.000	-0.056	-0.186
-631.536	56.254	-0.193	0.192
-630.522	681.690	-0.116	0.308
-629.507	-200.000	0.025	0.178
-628.492	267.959	0.138	0.247
-627.478	16.466	0.115	0.092
-626.463	61.397	-0.068	0.069
-625.449	-76.236	0.401	-0.144
-624.434	-108.686	-0.407	-0.089
-623.419	307.553	-0.074	0.141
-622.405	359.490	-0.053	-0.109
-621.390	126.466	-0.169	-0.218
-620.376	776.666	0.119	0.331
-619.361	-200.000	-0.029	0.161
-618.346	225.350	0.193	-0.319
-617.332	-48.718	0.081	0.040
-616.317	800.000	0.087	-0.329
-615.303	35.466	0.116	-0.104
-614.288	-114.026	0.056	-0.011
-613.273	-49.141	-0.154	-0.075
-612.259	570.378	0.014	0.035
-611.244	-105.695	-0.209	-0.048
-610.230	-120.113	-0.207	0.036
-609.215	-29.772	-0.188	0.109
-608.201	-200.000	-0.004	0.239
-607.186	57.987	0.102	-0.102
-606.171	325.019	-0.088	-0.171
-605.157	-191.219	0.313	0.003
-604.142	800.000	0.035	-0.126
-603.128	-13.007	0.208	0.138
-602.113	32.906	-0.284	0.250
-601.098	-200.000	0.022	-0.121
-600.084	546.811	0.097	0.236
-599.069	-48.543	0.320	0.157
-598.055	-72.241	0.125	-0.047
-597.040	296.184	0.043	-0.080
-596.025	800.000	-0.080	-0.328
-595.011	-99.126	-0.089	-0.023
-593.996	-115.606	0.234	0.045
-592.982	442.845	0.131	-0.292
-591.967	11.419	0.318	0.248
-590.952	314.906	0.084	0.162
-589.938	63.977	-0.139	0.143
-588.923	-200.000	0.017	-0.303
-587.909	-71.793	0.378	0.143
-586.894	800.000	0.075	0.269
-585.879	-150.351	0.161	-0.013
-584.865	800.000	0.045	-0.176
-583.850	-68.956	-0.055	-0.022
-582.836	1.978	0.048	-0.036
-581.821	36.559	0.154	-0.138
-580.806	-44.416	0.198	-0.101
-579.792	64.843	0.135	-0.139
-578.777	0.106	-0.221	0.160
-577.763	-84.623	-0.409	-0.131
-576.748	-72.725	0.344	-0.129
-575.733	800.000	0.112	0.445
-574.719	385.995	0.063	0.133
-573.704	97.862	0.118	-0.138
-572.690	-57.383	0.140	-0.062
-571.675	-200.000	0.030	-0.375
-570.661	-91.280	0.071	-0.021
-569.646	76.115	-0.148	-0.160
-568.631	-29.305	-0.296	0.172
-567.617	-107.846	-0.141	-0.031
-566.602	-145.817	0.167	0.015
-565.588	-103.100	0.279	-0.067
-564.573	-89.740	-0.176	0.052
-563.558	55.269	0.121	0.119
-562.544	-200.000	-0.038	0.377
-561.529	156.261	0.048	0.068
-560.515	-44.423	0.250	0.127
-559.500	-113.915	0.328	0.065
-558.485	800.000	0.080	-0.228
-557.471	644.458	-0.082	0.212
-556.456	17.255	-0.147	-0.119
-555.442	-200.000	-0.005	0.106
-554.427	-94.192	0.248	0.069
-553.412	-200.000	0.003	0.181
-552.398	-47.589	-0.305	-0.150
-551.383	-148.076	0.208	-0.018
-550.369	-200.000	0.109	0.584
-549.354	-200.000	-0.043	-0.360
-548.339	-1.501	0.143	0.102
-547.325	-137.098	0.065	-0.008
-546.310	-23.009	-0.184	-0.113
-545.296	-18.723	-0.197	-0.125
-544.281	395.898	-0.036	0.077
-543.266	800.000	-0.044	-0.142
-542.252	336.496	-0.074	0.147
-541.237	-85.076	0.321	-0.102
-540.223	35.342	0.374	-0.333
-539.208	800.000	-0.096	-0.302
-538.193	479.240	0.099	0.228
-537.179	76.874	-0.326	0.351
-536.164	-68.072	0.178	0.070
-535.150	178.507	-0.149	-0.221
-534.135	-28.208	-0.294	0.173
-533.121	142.620	-0.135	-0.183
-532.106	239.674	-0.086	0.145
-531.091	124.220	0.025	-0.031
-530.077	-178.831	0.328	0.008
-529.062	187.398	-0.065	-0.099
-528.048	-79.135	-0.166	-0.057
-527.033	-48.783	0.189	-0.092
-526.018	84.875	0.124	0.138
-525.004	800.000	0.032	0.135
-523.989	258.096	0.182	-0.318
-522.975	-72.847	-0.092	-0.034
-521.960	-57.808	0.124	0.055
-520.945	397.870	0.027	0.057
-519.931	-33.849	-0.170	0.095
-518.916	-125.775	-0.189	-0.029
-517.902	21.600	0.188	-0.155
-516.887	-140.999	-0.269	0.028
-515.872	-118.741	0.398	-0.071
-514.858	-200.000	-0.038	-0.199
-513.843	134.880	0.140	-0.184
-512.829	-48.528	-0.208	0.102
-511.814	-65.673	-0.077	0.031
-510.799	-184.759	-0.502	0.008
-509.785	-5.456	-0.065	0.045
-508.770	800.000	0.034	0.125
-507.756	-61.193	0.240	-0.103
-506.741	-15.815	0.101	0.065
-505.726	-19.359	0.548	-0.345
-504.712	366.364	-0.176	-0.359
-503.697	41.613	-0.197	-0.181
-502.683	169.499	-0.171	-0.248
-501.668	-200.000	-0.041	-0.448
-500.653	-119.665	0.070	-0.012
-499.639	65.790	-0.178	0.183
-498.624	9.723	0.160	0.123
-497.610	-182.745	0.178	0.003
-496.595	800.000	0.080	-0.260
-495.581	450.828	-0.023	0.052
-494.566	84.438	-0.097	0.107
-493.551	21.599	-0.039	-0.032
-492.537	115.545	-0.121	0.151
-491.522	-19.209	-0.287	0.180
-490.508	99.450	0.034	0.040
-489.493	-185.881	0.306	0.005
-488.478	-200.000	-0.026	-0.225
-487.464	-66.581	0.183	-0.074
-486.449	704.660	-0.047	0.126
-485.435	-96.478	-0.166	-0.044
-484.420	-13.757	0.144	-0.094
-483.405	55.947	-0.084	-0.083
-482.391	-143.390	0.194	-0.019
-481.376	-32.381	-0.161	-0.091
-480.362	-186.800	-0.378	-0.005
-479.347	48.807	-0.207	-0.197
-478.332	-200.000	0.017	0.118
-477.318	800.000	0.107	-0.316
-476.303	208.839	-0.079	0.125
-475.289	-77.196	-0.385	-0.136
-474.274	-200.000	0.056	0.638
-473.259	-200.000	0.046	0.238
-472.245	-200.000	-0.043	0.291
-471.230	21.005	-0.308	-0.253
-470.216	-2.259	0.188	0.133
-469.201	-200.000	-0.042	-0.459
-468.186	221.417	-0.138	0.225
-467.172	-153.427	0.308	0.022
-466.157	-87.023	-0.441	0.136
-465.143	-135.875	0.160	0.019
-464.128	-98.484	0.254	0.066
-463.113	800.000	-0.080	-0.257
-462.099	26.904	0.255	-0.217
-461.084	-90.176	-0.030	0.009
-460.070	-12.644	-0.155	-0.102
-459.055	73.069	-0.075	0.080
-458.040	-200.000	0.066	-0.367
-457.026	535.009	-0.137	-0.329
-456.011	800.000	0.036	0.127
-454.997	-200.000	-0.008	-0.138
-453.982	17.992	-0.084	-0.068
-452.968	-104.726	-0.301	0.070
-451.953	-106.671	0.200	-0.045
-450.938	800.000	-0.086	0.245
-449.924	-24.813	-0.109	0.066
-448.909	-38.657	-0.335	0.179
-447.895	-55.386	-0.126	-0.057
-446.880	497.724	0.096	0.223
-445.865	-200.000	0.015	0.083
-444.851	179.210	-0.097	-0.144
-443.836	799.351	0.057	-0.160
-442.822	-200.000	0.015	0.158
-441.807	56.849	0.142	0.140
-440.792	800.000	-0.068	0.240
-439.778	-200.000	-0.002	0.018
-438.763	36.153	0.288	0.257
-437.749	448.099	-0.174	0.387
-436.734	-157.881	-0.278	0.017
-435.719	96.723	-0.141	-0.164
-434.705	133.885	0.040	-0.053
-433.690	-7.165	0.130	-0.089
-432.676	-10.718	0.092	0.062
-431.661	-25.542	0.224	-0.134
-430.646	-18.095	0.192	-0.122
-429.632	96.201	-0.124	-0.143
-428.617	-83.738	-0.381	0.123
-427.603	-200.000	-0.003	0.070
-426.588	-200.000	0.039	-0.411
-425.573	-200.000	0.051	0.287
-424.559	26.888	0.117	0.099
-423.544	-79.633	0.246	-0.084
-422.530	-7.974	-0.312	0.213
-421.515	12.578	-0.085	0.066
-420.500	-200.000	-0.008	0.145
-419.486	-200.000	0.035	-0.256
-418.471	-105.741	0.095	-0.022
-417.457	57.510	-0.364	-0.360
-416.442	341.735	-0.081	-0.161
-415.428	-49.414	-0.352	-0.170
-414.413	-162.334	-0.186	-0.009
-413.398	71.450	-0.244	-0.256
-412.384	-121.632	-0.113	0.019
-411.369	-137.117	0.110	0.013
-410.355	108.335	-0.347	0.418
-409.340	311.579	-0.120	-0.227
-408.325	-2.598	-0.060	-0.042
-407.311	59.630	-0.228	-0.228
-406.296	-131.297	0.243	0.033
-405.282	-200.000	-0.033	0.329
-404.267	-100.746	0.174	0.043
-403.252	151.536	-0.272	-0.375
-402.238	62.741	-0.149	0.150
-401.223	-200.000	0.013	0.218
-400.209	291.877	-0.117	0.216
-399.194	-105.647	-0.136	-0.031
-398.179	-20.472	-0.160	0.099
-397.165	705.586	0.078	0.207
-396.150	800.000	0.074	-0.326
-395.136	-139.702	-0.295	0.032
-394.121	800.000	-0.049	0.200
-393.106	-29.403	-0.325	0.188
-392.092	17.882	0.308	0.248
-391.077	-57.046	0.533	0.237
-390.063	59.821	0.093	-0.093
-389.048	-154.977	0.237	-0.016
-388.033	-3.370	-0.087	-0.061
-387.019	-116.497	0.189	0.035
-386.004	800.000	0.057	-0.213
-384.990	-66.936	-0.102	-0.041
-383.975	509.678	0.090	-0.212
-382.960	-8.790	-0.153	0.103
-381.946	800.000	-0.057	0.211
-380.931	800.000	-0.068	0.268
-379.917	-36.050	0.095	-0.052
-378.902	78.816	-0.148	0.160
-377.888	-101.003	0.127	-0.031
-376.873	486.192	0.140	-0.321
-375.858	800.000	-0.058	0.257
-374.844	-45.022	0.482	-0.242
-373.829	35.226	0.116	-0.102
-372.815	-200.000	-0.003	-0.144
-371.800	27.840	-0.121	0.103
-370.785	-153.758	0.197	-0.014
-369.771	-158.763	-0.311	0.018
-368.756	-200.000	-0.031	0.343
-367.742	-194.155	0.144	0.001
-366.727	-200.000	0.018	0.172
-365.712	-200.000	0.039	0.180
-364.698	-113.453	0.143	-0.028
-363.683	-200.000	-0.191	-0.000
-362.669	-200.000	0.017	-0.088
-361.654	-92.464	0.194	-0.055
-360.639	-174.847	-0.189	-0.005
-359.625	-95.731	0.015	-0.004
-358.610	-200.000	0.007	-0.031
-357.596	-165.432	0.256	0.011
-356.581	-55.819	-0.293	0.132
-355.566	94.548	0.052	0.060
-354.552	-66.615	0.065	-0.026
-353.537	98.602	0.207	-0.240
-352.523	800.000	-0.040	0.173
-351.508	-5.081	-0.105	-0.073
-350.493	-71.165	-0.241	0.091
-349.479	800.000	-0.041	0.151
-348.464	-183.360	-0.185	0.003
-347.450	199.155	-0.200	-0.309
-346.435	96.084	-0.155	0.179
-345.420	47.636	-0.083	-0.079
-344.406	800.000	0.078	0.232
-343.391	-13.204	0.221	-0.145
-342.377	800.000	-0.087	-0.342
-341.362	-74.792	0.096	0.035
-340.348	7.818	0.307	-0.232
-339.333	-200.000	-0.008	0.161
-338.318	-92.294	0.162	-0.046
-337.304	-65.223	-0.166	-0.067
-336.289	-97.505	-0.177	-0.046
-335.275	-24.569	-0.246	-0.148
-334.260	-168.596	-0.363	0.014
-333.245	279.982	0.125	0.224
-332.231	316.190	-0.256	-0.488
-331.216	20.359	-0.205	-0.167
-330.202	800.000	0.024	0.089
-329.187	-99.019	-0.202	0.052
-328.172	800.000	0.058	0.230
-327.158	-200.000	0.002	0.343
-326.143	-200.000	0.008	-0.081
-325.129	-200.000	-0.011	0.232
-324.114	-72.865	-0.282	-0.105
-323.099	-38.187	0.198	0.106
-322.085	-50.203	0.241	0.115
-321.070	-181.447	-0.151	0.003
-320.056	-184.077	-0.107	-0.002
-319.041	800.000	0.087	0.325
-318.026	713.991	0.092	0.245
-317.012	76.416	-0.059	0.063
-315.997	-101.494	0.255	0.062
-314.983	638.034	-0.133	0.341
-313.968	-37.374	0.441	0.237
-312.953	-200.000	0.006	0.058
-311.939	-75.943	0.265	0.094
-310.924	-78.952	-0.366	-0.126
-309.910	-167.651	0.308	-0.012
-308.895	-200.000	-0.002	-0.154
-307.880	-11.089	0.119	0.079
-306.866	468.285	0.061	0.137
-305.851	-153.408	0.467	-0.033
-304.837	800.000	0.144	-0.457
-303.822	-200.000	0.053	-0.485
-302.807	-68.356	0.078	-0.031
-301.793	73.027	-0.153	-0.161
-300.778	55.753	0.162	0.158
-299.764	-62.277	0.167	-0.070
-298.749	-69.608	0.176	-0.068
-297.735	-184.890	0.269	0.004
-296.720	-43.071	-0.353	-0.180
-295.705	99.541	0.097	0.113
-294.691	-92.718	0.294	-0.083
-293.676	-105.711	0.216	0.049
-292.662	-158.849	0.168	-0.010
-291.647	-103.830	-0.323	-0.076
-290.632	376.091	0.136	0.280
-289.618	800.000	-0.098	0.336
-288.603	-2.997	-0.070	0.049
-287.589	-200.000	0.009	-0.251
-286.574	245.621	0.188	0.318
-285.559	-148.151	-0.303	0.025
-284.545	-156.677	-0.098	-0.006
-283.530	-57.874	-0.109	0.048
-282.516	112.412	-0.018	-0.021
-281.501	68.089	0.094	-0.097
-280.486	71.687	0.116	0.121
-279.472	20.605	-0.280	0.227
-278.457	-185.717	-0.275	0.004
-277.443	-200.000	-0.002	0.136
-276.428	-200.000	0.019	0.146
-275.413	-63.085	0.139	-0.058
-274.399	800.000	-0.115	0.364
-273.384	-89.582	0.221	0.065
-272.370	762.851	-0.034	0.092
-271.355	225.740	-0.054	0.088
-270.340	233.122	-0.203	0.335
-269.326	19.470	-0.254	0.206
-268.311	-200.000	-0.071	-0.357
-267.297	333.313	-0.021	-0.042
-266.282	-200.000	0.062	-0.426
-265.267	15.821	-0.072	0.057
-264.253	170.911	0.129	-0.186
-263.238	-125.766	-0.088	0.013
-262.224	-14.677	0.455	0.294
-261.209	-83.117	0.208	0.067
-260.195	-89.685	-0.156	-0.046
-259.180	800.000	0.102	-0.333
-258.165	33.704	0.061	0.053
-257.151	705.846	0.029	-0.078
-256.136	-200.000	-0.036	-0.198
-255.122	-200.000	-0.017	0.087
-254.107	87.215	0.055	0.061
-253.092	-200.000	-0.008	0.118
-252.078	683.045	0.012	0.032
-251.063	-19.231	0.132	0.082
-250.049	66.259	-0.159	-0.162
-249.034	-112.858	0.063	-0.012
-248.019	105.087	0.067	-0.080
-247.005	-58.783	-0.187	-0.081
-245.990	155.806	-0.316	-0.438
-244.976	36.784	0.334	-0.297
-243.961	-200.000	-0.065	0.405
-242.946	103.995	-0.271	0.320
-241.932	-58.816	0.183	-0.080
-240.917	-146.532	-0.107	0.009
-239.903	-200.000	-0.017	-0.151
-238.888	105.782	0.159	0.189
-237.873	-109.462	0.338	0.072
-236.859	800.000	-0.024	0.104
-235.844	187.954	0.052	-0.078
-234.830	-153.014	-0.092	0.007
-233.815	119.612	-0.246	-0.306
-232.800	-146.997	-0.181	-0.016
-231.786	123.332	-0.218	0.274
-230.771	-184.265	0.225	-0.004
-229.757	-89.806	0.077	0.023
-228.742	10.222	0.236	0.180
-227.727	239.245	-0.087	0.146
-226.713	-200.000	0.040	-0.218
-225.698	-11.687	-0.460	-0.303
-224.684	549.683	0.021	0.049
-223.669	8.923	-0.162	0.123
-222.655	800.000	0.057	0.184
-221.640	726.060	-0.082	-0.221
-220.625	-70.674	0.246	-0.093
-219.611	319.098	-0.039	0.074
-218.596	410.463	0.037	-0.078
-217.582	800.000	0.065	-0.184
-216.567	20.673	-0.073	0.059
-215.552	395.671	0.184	-0.385
-214.538	-200.000	-0.013	-0.116
-213.523	682.873	-0.066	0.174
-212.509	2.631	0.216	-0.157
-211.494	-17.072	0.308	-0.195
-210.479	-24.827	-0.280	-0.167
-209.465	-56.911	0.132	-0.059
-208.450	-51.831	-0.250	-0.117
-207.436	800.000	-0.036	-0.132
-206.421	20.726	-0.170	-0.138
-205.406	141.934	-0.299	0.397
-204.392	306.331	0.106	0.198
-203.377	-200.000	-0.007	0.044
-202.363	-85.524	0.274	-0.086
-201.348	-200.000	0.004	0.302
-200.333	307.930	0.084	0.158
-199.319	-200.000	-0.053	-0.294
-198.304	326.890	0.069	-0.133
-197.290	-196.340	-0.388	-0.003
-196.275	-138.786	0.275	0.030
-195.260	-85.022	0.381	0.120
-194.246	-200.000	0.005	0.077
-193.231	363.566	0.056	-0.114
-192.217	-31.296	-0.240	0.135
-191.202	800.000	-0.107	0.328
-190.187	-6.320	-0.184	-0.126
-189.173	-200.000	-0.049	0.282
-188.158	-200.000	0.026	0.129
-187.144	24.969	0.326	-0.271
-186.129	-142.038	-0.031	-0.003
-185.114	642.968	-0.054	0.138
-184.100	800.000	-0.087	0.265
-183.085	-200.000	0.088	-0.390
-182.071	113.581	0.156	-0.190
-181.056	-200.000	-0.060	0.415
-180.042	-117.388	-0.238	0.043
-179.027	-166.241	-0.239	0.010
-178.012	-94.552	-0.200	-0.055
-176.998	-200.000	-0.036	-0.167
-175.983	334.823	0.126	-0.245
-174.969	181.457	-0.119	0.176
-173.954	-48.832	-0.070	-0.034
-172.939	-143.374	-0.277	0.027
-171.925	-200.000	-0.061	0.363
-170.910	-200.000	0.004	-0.233
-169.896	-200.000	0.019	-0.183
-168.881	60.574	0.124	-0.123
-167.866	49.872	0.046	-0.043
-166.852	320.351	-0.093	-0.177
-165.837	-200.000	0.022	0.165
-164.823	-192.659	0.241	-0.002
-163.808	-156.096	0.023	0.001
-162.793	152.494	-0.037	-0.051
-161.779	186.273	-0.079	0.118
-160.764	-200.000	0.061	-0.299
-159.750	113.907	0.115	-0.140
-158.735	-52.495	0.029	0.014
-157.720	-68.414	0.141	-0.055
-156.706	582.801	0.054	-0.131
-155.691	-30.122	0.098	0.056
-154.677	-80.218	0.156	-0.052
-153.662	-18.024	-0.134	-0.084
-152.647	800.000	-0.104	0.326
-151.633	127.105	0.057	-0.073
-150.618	158.827	0.086	0.120
-149.604	606.952	0.067	-0.168
-148.589	134.587	0.101	0.131
-147.574	-200.000	0.016	0.322
-146.560	672.424	-0.011	-0.027
-145.545	-200.000	0.004	-0.101
-144.531	-49.108	-0.261	0.125
-143.516	-60.562	0.192	0.081
-142.502	-200.000	0.098	0.476
-141.487	-160.205	-0.450	-0.024
-140.472	-20.175	-0.315	0.194
-139.458	-4.703	0.096	-0.066
-138.443	-200.000	0.046	-0.232
-137.429	-125.258	0.307	0.047
-136.414	-85.985	0.250	0.077
-135.399	-200.000	0.074	-0.399
-134.385	9.221	0.155	-0.118
-133.370	176.299	-0.094	-0.136
-132.356	-141.287	-0.201	0.020
-131.341	40.681	0.091	0.082
-130.326	89.951	-0.038	-0.042
-129.312	800.000	0.049	-0.211
-128.297	114.146	-0.151	0.184
-127.283	-132.202	0.273	-0.035
-126.268	-69.113	0.264	-0.102
-125.253	48.033	0.021	0.020
-124.239	800.000	0.047	0.165
-123.224	133.205	0.113	-0.146
-122.210	-37.182	0.191	0.102
-121.195	-43.125	-0.116	0.059
