DTS Sentinel unit serial number:	SN413079Multiplexer serial number:	ORYXHardware model number:	OX4-SRSoftware version number:	ORYX F/W v4.00 Oryx Data Collector v3.7.2.0data status	okinstallation	princeton_trtdifferential loss correction	single-endedforward channel	channel 1reverse channel	N/Adate	2019/09/18time	13:58:35forward acquisition time	60.00reverse acquisition time	0.00gamma	496.2192k internal	0.2312k external	0.2312temperature offset calibration	0.9987default loss term (dB/km)	0.3790temperature slope calibration	1.0000multiplexer offset coefficient	1.0000multiplexer slope coefficient	1.0000fibre end	0.00T internal ref (°C)	34.50T ext. ref 1 (°C)	0.66T ext. ref 2 (°C)	29.08length (m)	temperature (°C)	Stokes	anti-Stokes-747.200	-89.405	0.276	-0.082
-746.185	475.179	-0.042	-0.097
-745.171	-44.234	0.135	0.069
-744.156	130.782	-0.040	-0.052
-743.142	-135.673	0.362	-0.044
-742.127	365.520	-0.111	0.226
-741.112	357.740	-0.015	-0.030
-740.098	3.557	-0.346	0.256
-739.083	225.777	0.198	0.325
-738.069	86.525	-0.166	-0.185
-737.054	-200.000	-0.006	0.316
-736.039	-50.448	-0.427	0.204
-735.025	-200.000	-0.012	0.057
-734.010	-200.000	-0.025	-0.320
-732.996	-200.000	-0.042	-0.232
-731.981	-115.448	0.125	0.024
-730.966	-22.732	-0.159	0.097
-729.952	-200.000	0.116	-0.001
-728.937	-135.639	-0.258	0.031
-727.923	-169.585	-0.296	0.011
-726.908	66.114	-0.127	-0.131
-725.894	155.821	0.137	-0.191
-724.879	-10.279	-0.281	-0.189
-723.864	-200.000	-0.038	0.249
-722.850	338.829	-0.127	-0.250
-721.835	-200.000	-0.004	-0.051
-720.821	-200.000	0.024	0.180
-719.806	245.063	-0.115	-0.197
-718.791	41.918	0.084	-0.078
-717.777	800.000	-0.045	0.147
-716.762	65.432	-0.401	0.411
-715.748	351.928	-0.186	0.373
-714.733	-50.095	-0.079	-0.038
-713.718	-120.380	0.440	-0.076
-712.704	-65.350	0.113	-0.046
-711.689	-64.516	0.231	-0.095
-710.675	439.369	-0.086	0.190
-709.660	514.899	0.061	0.144
-708.645	-200.000	-0.003	-0.087
-707.631	-200.000	0.065	-0.318
-706.616	-154.663	0.233	-0.016
-705.602	-200.000	0.076	-0.493
-704.587	13.896	-0.240	-0.189
-703.572	800.000	0.009	0.031
-702.558	8.873	0.256	-0.196
-701.543	80.189	0.253	0.276
-700.529	62.892	0.217	-0.220
-699.514	-200.000	-0.013	-0.129
-698.499	153.567	-0.016	-0.022
-697.485	131.871	0.229	-0.299
-696.470	-40.809	-0.137	0.072
-695.456	-62.370	-0.273	-0.115
-694.441	-61.919	0.277	0.117
-693.426	-200.000	0.018	-0.166
-692.412	235.350	0.172	0.288
-691.397	46.906	0.164	-0.155
-690.383	-75.121	0.178	-0.065
-689.368	237.677	-0.181	-0.304
-688.354	-0.785	-0.201	-0.144
-687.339	10.635	-0.224	-0.173
-686.324	-79.466	-0.279	-0.096
-685.310	-155.225	0.305	0.020
-684.295	78.524	0.174	0.188
-683.281	-200.000	0.015	0.234
-682.266	-24.854	-0.088	-0.053
-681.251	30.216	0.253	-0.219
-680.237	-167.145	0.288	-0.012
-679.222	800.000	0.099	-0.304
-678.208	294.161	0.230	0.426
-677.193	800.000	-0.142	-0.442
-676.178	420.502	-0.062	0.134
-675.164	-200.000	-0.012	0.120
-674.149	-162.826	-0.327	-0.016
-673.135	99.745	-0.153	-0.179
-672.120	-174.092	-0.443	0.013
-671.105	-200.000	-0.004	0.044
-670.091	324.571	-0.106	0.205
-669.076	-200.000	0.041	-0.192
-668.062	800.000	0.078	-0.273
-667.047	23.620	0.037	-0.031
-666.032	-49.124	-0.296	-0.143
-665.018	267.846	0.074	-0.131
-664.003	-7.702	-0.245	-0.167
-662.989	-95.543	-0.242	-0.066
-661.974	-164.894	-0.369	-0.017
-660.959	-86.095	0.309	0.096
-659.945	-29.810	-0.225	-0.130
-658.930	207.929	-0.007	0.012
-657.916	353.142	0.102	0.204
-656.901	196.244	-0.110	-0.169
-655.886	-37.676	-0.357	0.192
-654.872	-32.297	-0.301	0.170
-653.857	-99.193	0.150	0.038
-652.843	-146.971	0.134	0.012
-651.828	117.965	0.294	-0.367
-650.814	-200.000	-0.005	-0.062
-649.799	114.643	-0.079	0.097
-648.784	12.010	-0.070	-0.054
-647.770	-143.519	0.411	-0.040
-646.755	-200.000	-0.019	0.119
-645.741	-117.302	-0.181	0.033
-644.726	751.007	0.077	0.209
-643.711	-72.863	0.051	0.019
-642.697	-85.083	-0.219	-0.069
-641.682	-200.000	-0.058	-0.371
-640.668	-73.087	0.360	-0.133
-639.653	-200.000	0.011	0.184
-638.638	160.973	0.043	-0.061
-637.624	-171.714	-0.287	0.010
-636.609	53.214	-0.238	-0.230
-635.595	207.874	-0.194	-0.306
-634.580	186.556	0.057	0.085
-633.565	-25.588	0.126	-0.075
-632.551	56.187	0.173	-0.169
-631.536	-117.373	-0.055	0.010
-630.522	-157.039	-0.172	0.011
-629.507	59.995	0.136	-0.136
-628.492	800.000	0.076	0.226
-627.478	-141.030	0.322	0.033
-626.463	-200.000	0.053	-0.253
-625.449	740.035	-0.095	-0.257
-624.434	-144.401	0.211	0.020
-623.419	-137.964	-0.139	0.016
-622.405	134.094	-0.238	0.311
-621.390	103.512	-0.217	0.257
-620.376	-96.812	0.264	0.070
-619.361	800.000	0.085	-0.325
-618.346	-200.000	-0.004	0.241
-617.332	227.113	-0.138	-0.227
-616.317	-59.402	-0.189	-0.082
-615.303	-93.182	0.202	-0.057
-614.288	362.037	-0.075	-0.152
-613.273	-73.838	0.123	0.045
-612.259	200.571	-0.046	0.071
-611.244	-95.442	-0.198	0.054
-610.230	165.545	0.074	0.106
-609.215	1.926	0.207	0.150
-608.201	148.394	0.087	-0.119
-607.186	631.419	-0.078	-0.200
-606.171	-200.000	-0.012	-0.053
-605.157	800.000	0.043	0.132
-604.142	422.524	-0.126	-0.273
-603.128	-114.056	0.209	-0.041
-602.113	-31.884	-0.149	-0.084
-601.098	37.362	-0.235	-0.210
-600.084	574.222	-0.116	-0.286
-599.069	-47.403	-0.048	0.024
-598.055	-137.204	0.161	0.018
-597.040	-36.814	-0.339	0.184
-596.025	215.084	0.149	0.238
-595.011	432.857	-0.041	0.090
-593.996	-86.980	0.044	-0.014
-592.982	20.297	0.064	-0.052
-591.967	152.474	-0.212	-0.292
-590.952	-57.924	-0.314	0.138
-589.938	-154.725	0.276	0.018
-588.923	-53.915	-0.075	0.035
-587.909	744.194	0.058	-0.158
-586.894	-200.000	0.037	0.231
-585.879	-157.240	-0.096	0.006
-584.865	208.944	-0.161	-0.254
-583.850	-109.644	-0.279	0.059
-582.836	-11.942	0.068	-0.045
-581.821	-49.221	0.119	0.057
-580.806	-200.000	0.000	0.036
-579.792	364.659	0.030	-0.061
-578.777	95.288	0.167	0.192
-577.763	20.698	0.136	-0.111
-576.748	114.525	0.146	0.180
-575.733	762.676	0.049	0.134
-574.719	231.910	-0.187	-0.309
-573.704	-120.660	0.281	0.048
-572.690	-75.957	-0.276	0.099
-571.675	-105.565	0.017	0.004
-570.661	133.885	-0.135	-0.177
-569.646	12.725	-0.257	0.200
-568.631	324.614	-0.185	0.356
-567.617	-188.524	-0.526	-0.007
-566.602	-60.451	-0.170	0.073
-565.588	-169.954	-0.117	-0.004
-564.573	194.947	0.084	0.128
-563.558	-40.502	-0.408	0.214
-562.544	-117.344	0.087	-0.016
-561.529	612.804	-0.067	0.169
-560.515	800.000	0.070	-0.247
-559.500	218.824	-0.189	-0.305
-558.485	-200.000	-0.024	-0.227
-557.471	33.313	-0.124	-0.109
-556.456	-145.785	-0.338	0.030
-555.442	-76.884	0.090	0.032
-554.427	133.126	-0.073	0.095
-553.412	-200.000	-0.022	-0.168
-552.398	-129.697	-0.071	0.010
-551.383	168.885	-0.171	0.246
-550.369	378.224	0.046	0.094
-549.354	-73.248	0.330	0.122
-548.339	133.916	-0.144	0.188
-547.325	-200.000	-0.018	0.134
-546.310	-37.103	-0.307	-0.165
-545.296	-77.058	0.044	-0.016
-544.281	94.821	-0.312	-0.358
-543.266	800.000	-0.073	0.217
-542.252	-200.000	-0.019	0.126
-541.237	-133.687	-0.131	0.016
-540.223	346.593	-0.130	0.258
-539.208	472.126	0.141	-0.320
-538.193	-200.000	0.007	-0.054
-537.179	-200.000	0.002	0.420
-536.164	316.669	0.100	0.191
-535.150	-200.000	-0.007	0.053
-534.135	-7.825	0.205	-0.139
-533.121	70.532	-0.058	0.060
-532.106	-200.000	0.026	-0.198
-531.091	-200.000	0.007	0.226
-530.077	211.962	0.172	0.273
-529.062	10.693	-0.131	0.101
-528.048	7.082	-0.156	-0.117
-527.033	800.000	-0.094	0.281
-526.018	-84.664	0.203	-0.064
-525.004	-200.000	-0.031	0.000
-523.989	-200.000	0.014	0.105
-522.975	800.000	-0.021	0.079
-521.960	-70.452	0.265	0.101
-520.945	-200.000	-0.050	-0.235
-519.931	687.658	0.024	0.064
-518.916	739.327	-0.024	0.064
-517.902	33.214	0.134	0.117
-516.887	154.403	-0.245	-0.339
-515.872	215.046	0.044	-0.070
-514.858	-32.759	0.180	0.101
-513.843	188.587	-0.192	-0.289
-512.829	800.000	-0.035	0.153
-511.814	213.961	-0.175	0.279
-510.799	37.776	0.119	0.106
-509.785	-64.852	-0.477	-0.194
-508.770	-125.545	-0.116	-0.018
-507.756	71.470	0.115	0.120
-506.741	42.115	-0.040	-0.036
-505.726	-200.000	-0.071	-0.408
-504.712	-83.074	0.124	-0.040
-503.697	-11.274	-0.115	0.076
-502.683	-83.366	-0.269	-0.087
-501.668	800.000	0.016	0.049
-500.653	190.494	-0.076	-0.115
-499.639	-200.000	-0.042	-0.243
-498.624	-200.000	-0.173	0.000
-497.610	-40.170	-0.406	0.212
-496.595	-200.000	-0.064	-0.371
-495.581	718.516	-0.050	-0.133
-494.566	281.644	-0.026	0.047
-493.551	800.000	0.015	-0.045
-492.537	-96.151	-0.163	-0.044
-491.522	143.453	-0.080	0.107
-490.508	119.266	-0.193	0.240
-489.493	-125.619	-0.377	0.057
-488.478	-37.259	0.213	-0.114
-487.464	-73.347	-0.139	-0.051
-486.449	-148.596	0.231	-0.019
-485.435	205.818	0.136	0.212
-484.420	401.895	-0.112	0.236
-483.405	-200.000	-0.026	-0.193
-482.391	-47.407	-0.147	0.072
-481.376	-134.514	-0.118	0.014
-480.362	190.906	0.246	-0.371
-479.347	14.393	0.211	-0.165
-478.332	227.024	0.102	-0.166
-477.318	10.431	0.064	-0.049
-476.303	-126.955	-0.229	-0.034
-475.289	468.414	0.035	-0.079
-474.274	43.960	-0.171	0.158
-473.259	762.834	0.106	-0.288
-472.245	4.345	-0.122	-0.090
-471.230	494.259	0.108	0.248
-470.216	-14.961	-0.164	-0.106
-469.201	145.087	0.156	-0.209
-468.186	147.118	0.093	0.126
-467.172	-137.387	-0.195	0.022
-466.157	-102.159	0.341	0.082
-465.143	-54.649	-0.297	-0.135
-464.128	800.000	-0.042	0.135
-463.113	25.507	-0.108	-0.090
-462.099	99.434	0.127	-0.148
-461.084	-134.555	0.339	-0.042
-460.070	400.660	-0.119	-0.252
-459.055	-92.326	0.142	-0.040
-458.040	-83.828	0.210	0.067
-457.026	175.853	-0.103	0.151
-456.011	206.542	0.167	-0.261
-454.997	-22.076	-0.154	0.094
-453.982	598.769	0.085	0.210
-452.968	-200.000	-0.067	-0.370
-451.953	-53.194	-0.152	0.070
-450.938	-200.000	0.031	0.199
-449.924	-200.000	-0.009	-0.287
-448.909	-38.453	-0.060	-0.032
-447.895	517.607	-0.113	0.265
-446.880	-19.244	0.383	-0.238
-445.865	162.471	-0.125	-0.176
-444.851	-200.000	0.038	-0.301
-443.836	576.295	-0.059	0.145
-442.822	491.107	0.035	-0.081
-441.807	-200.000	0.026	0.216
-440.792	-78.882	0.487	-0.167
-439.778	118.619	0.235	0.290
-438.763	39.774	-0.046	-0.041
-437.749	73.197	-0.097	0.102
-436.734	352.538	-0.092	-0.182
-435.719	-17.388	0.307	-0.194
-434.705	-114.937	0.239	-0.046
-433.690	-180.229	-0.341	-0.007
-432.676	334.441	0.054	0.105
-431.661	800.000	0.014	-0.053
-430.646	463.914	0.051	0.114
-429.632	-71.717	0.286	0.107
-428.617	468.548	-0.160	-0.359
-427.603	152.937	-0.175	-0.240
-426.588	-42.142	0.208	0.107
-425.573	-78.444	-0.253	-0.087
-424.559	-38.012	0.290	-0.154
-423.544	-200.000	0.039	-0.244
-422.530	-122.782	-0.172	0.028
-421.515	-115.292	-0.187	0.035
-420.500	-200.000	0.023	0.450
-419.486	156.564	-0.128	-0.178
-418.471	-52.380	0.129	-0.060
-417.457	-51.976	0.082	0.038
-416.442	238.709	0.027	-0.045
-415.428	-8.081	0.138	-0.093
-414.413	800.000	0.090	0.302
-413.398	-149.371	-0.223	0.018
-412.384	-123.409	0.128	-0.020
-411.369	-132.502	-0.340	0.044
-410.355	-37.732	-0.198	-0.106
-409.340	-30.198	-0.273	-0.156
-408.325	-98.813	0.173	-0.044
-407.311	44.383	0.088	-0.081
-406.296	-148.450	-0.250	0.021
-405.282	-42.691	-0.157	-0.080
-404.267	228.579	0.141	0.231
-403.252	-153.401	0.319	0.022
-402.238	-50.953	0.309	0.145
-401.223	-81.267	0.197	0.065
-400.209	-113.020	0.485	-0.096
-399.194	46.449	-0.161	0.149
-398.179	224.345	0.222	0.360
-397.165	-22.236	-0.159	-0.096
-396.150	682.843	0.085	0.223
-395.136	-24.353	0.248	0.148
-394.121	800.000	0.074	0.205
-393.106	-32.559	0.322	0.180
-392.092	-131.691	0.212	-0.028
-391.077	-200.000	-0.019	-0.205
-390.063	800.000	-0.119	-0.363
-389.048	190.851	-0.058	0.088
-388.033	84.248	-0.121	0.133
-387.019	-200.000	0.026	-0.181
-386.004	-129.263	-0.310	-0.043
-384.990	98.867	-0.111	0.128
-383.975	-65.037	0.110	0.044
-382.960	800.000	0.137	0.527
-381.946	161.284	-0.110	-0.154
-380.931	800.000	-0.019	-0.080
-379.917	-154.114	-0.185	-0.013
-378.902	-110.590	0.360	0.074
-377.888	34.928	-0.274	0.239
-376.873	-82.589	0.147	-0.048
-375.858	-102.133	0.151	-0.036
-374.844	-200.000	-0.004	-0.055
-373.829	310.016	0.055	0.103
-372.815	-155.336	0.367	-0.024
-371.800	68.513	0.372	0.381
-370.785	25.658	0.138	0.115
-369.771	-200.000	0.005	-0.039
-368.756	-96.613	-0.417	0.110
-367.742	87.499	0.339	0.375
-366.727	204.445	0.101	-0.156
-365.712	164.055	0.078	-0.110
-364.698	234.055	0.121	-0.199
-363.683	37.206	0.285	-0.252
-362.669	-56.493	0.089	-0.039
-361.654	165.449	0.156	0.220
-360.639	-200.000	-0.025	0.114
-359.625	176.292	-0.051	0.075
-358.610	175.122	-0.051	0.074
-357.596	-113.654	-0.140	0.027
-356.581	-64.780	-0.121	0.049
-355.566	-200.000	0.064	0.305
-354.552	-120.869	0.121	-0.020
-353.537	800.000	-0.040	0.131
-352.523	263.185	-0.033	-0.058
-351.508	-36.126	0.283	0.153
-350.493	523.395	0.095	0.222
-349.479	-19.294	-0.251	0.155
-348.464	539.647	-0.064	-0.151
-347.450	-74.156	-0.074	-0.027
-346.435	74.434	0.522	0.548
-345.420	116.066	0.411	0.502
-344.406	-170.520	0.049	-0.002
-343.391	800.000	0.028	-0.096
-342.377	-35.882	-0.351	-0.190
-341.362	554.943	0.147	-0.352
-340.348	-64.969	-0.308	-0.124
-339.333	-82.686	-0.053	0.017
-338.318	-13.488	-0.147	-0.095
-337.304	-200.000	0.003	-0.301
-336.289	205.940	-0.046	0.071
-335.275	173.734	-0.119	-0.171
-334.260	-135.524	-0.193	-0.023
-333.245	-103.208	0.276	0.065
-332.231	243.056	-0.118	-0.198
-331.216	-80.670	0.494	0.164
-330.202	-49.794	-0.290	-0.137
-329.187	-200.000	-0.019	0.272
-328.172	295.490	0.066	0.121
-327.158	100.280	-0.025	0.029
-326.143	128.252	-0.152	0.193
-325.129	-160.167	0.186	-0.010
-324.114	209.302	0.117	-0.184
-323.099	800.000	0.075	-0.225
-322.085	34.118	-0.201	-0.175
-321.070	300.167	0.122	0.225
-320.056	-9.862	0.246	-0.163
-319.041	100.665	-0.171	-0.199
-318.026	-200.000	-0.026	0.174
-317.012	-114.982	-0.163	0.031
-315.997	-107.212	0.104	0.023
-314.983	-185.224	-0.396	0.006
-313.968	-68.393	0.226	0.088
-312.953	-200.000	0.035	-0.543
-311.939	241.855	0.015	0.025
-310.924	-38.564	-0.229	0.121
-309.910	800.000	0.082	-0.235
-308.895	-64.172	-0.167	-0.068
-307.880	532.654	-0.106	-0.250
-306.866	800.000	0.104	-0.306
-305.851	-200.000	0.009	0.226
-304.837	-82.937	-0.256	0.082
-303.822	-22.611	0.406	0.245
-302.807	-81.433	0.114	-0.038
-301.793	166.653	0.111	0.157
-300.778	160.546	0.117	-0.163
-299.764	60.123	-0.077	-0.076
-298.749	-69.291	-0.153	-0.058
-297.735	130.805	-0.201	0.258
-296.720	-107.449	-0.232	0.051
-295.705	-1.772	0.216	0.152
-294.691	282.454	-0.078	0.139
-293.676	-120.116	-0.128	0.022
-292.662	800.000	-0.068	-0.257
-291.647	-114.393	-0.263	-0.051
-290.632	92.303	-0.027	0.031
-289.618	-53.499	0.204	-0.093
-288.603	16.428	-0.137	-0.108
-287.589	-74.095	-0.145	-0.052
-286.574	-19.112	-0.356	0.220
-285.559	-82.860	0.446	-0.143
-284.545	-35.627	-0.245	0.132
-283.530	367.444	0.186	-0.374
-282.516	122.373	-0.063	0.079
-281.501	-11.020	-0.233	-0.153
-280.486	309.399	-0.084	0.157
-279.472	-59.164	-0.186	-0.080
-278.457	800.000	0.069	0.273
-277.443	134.386	0.089	-0.114
-276.428	800.000	-0.071	0.280
-275.413	-117.173	0.109	0.020
-274.399	170.170	-0.131	0.187
-273.384	-40.808	0.347	0.179
-272.370	-137.815	-0.144	0.016
-271.355	800.000	0.073	0.270
-270.340	172.798	0.284	0.408
-269.326	-105.760	0.270	-0.061
-268.311	35.561	-0.230	0.201
-267.297	800.000	0.041	-0.151
-266.282	-66.886	0.300	0.118
-265.267	493.249	-0.071	0.161
-264.253	-149.737	0.190	0.015
-263.238	-200.000	0.007	0.056
-262.224	143.163	-0.160	-0.213
-261.209	140.828	0.069	0.091
-260.195	-76.340	-0.044	-0.016
-259.180	398.673	-0.100	-0.208
-258.165	-82.262	-0.177	0.057
-257.151	-174.076	-0.130	0.004
-256.136	-152.326	-0.117	-0.008
-255.122	-116.305	-0.068	0.013
-254.107	75.093	0.143	-0.150
-253.092	-169.547	-0.161	-0.006
-252.078	-72.470	0.097	0.036
-251.063	15.981	0.215	0.168
-250.049	-88.580	0.394	0.117
-249.034	-8.357	-0.075	0.050
-248.019	-81.859	-0.196	0.064
-247.005	-140.097	-0.074	-0.008
-245.990	193.259	-0.191	-0.287
-244.976	552.660	-0.042	-0.101
-243.961	-162.451	-0.401	0.020
-242.946	234.090	-0.174	-0.285
-241.932	-200.000	0.019	-0.279
-240.917	-149.055	0.283	-0.023
-239.903	-59.465	0.263	-0.112
-238.888	3.792	-0.182	0.132
-237.873	176.157	-0.081	-0.117
-236.859	-21.041	0.451	0.275
-235.844	588.668	-0.107	-0.262
-234.830	-137.418	0.293	0.033
-233.815	-200.000	-0.072	0.335
-232.800	91.162	0.105	-0.117
-231.786	-56.566	0.277	-0.122
-230.771	77.637	-0.135	-0.143
-229.757	441.599	0.033	-0.071
-228.742	-179.600	0.141	0.003
-227.727	24.832	-0.101	0.083
-226.713	95.504	0.029	0.033
-225.698	92.743	0.046	-0.052
-224.684	63.508	-0.229	-0.228
-223.669	-200.000	0.005	0.104
-222.655	-54.288	-0.178	0.080
-221.640	56.349	-0.141	-0.136
-220.625	51.085	0.096	-0.090
-219.611	-200.000	-0.003	-0.144
-218.596	150.537	-0.071	-0.095
-217.582	666.427	-0.161	0.412
-216.567	-200.000	0.004	0.024
-215.552	-131.622	0.085	-0.011
-214.538	-92.489	0.232	-0.065
-213.523	-138.022	0.353	0.039
-212.509	80.751	-0.159	0.171
-211.494	130.369	0.269	0.342
-210.479	77.974	-0.034	0.036
-209.465	5.016	0.110	0.081
-208.450	142.769	0.143	-0.189
-207.436	-71.286	-0.122	0.046
-206.421	265.710	0.099	0.171
-205.406	800.000	0.031	0.088
-204.392	-23.503	-0.283	0.169
-203.377	-200.000	-0.008	0.225
-202.363	800.000	-0.057	0.246
-201.348	525.034	0.058	0.135
-200.333	-200.000	0.047	-0.441
-199.319	19.132	0.079	-0.063
-198.304	38.559	0.346	0.306
-197.290	-22.203	-0.564	-0.340
-196.275	800.000	-0.023	0.100
-195.260	800.000	0.044	-0.185
-194.246	457.907	-0.099	-0.219
-193.231	-200.000	-0.022	0.207
-192.217	235.565	0.081	0.133
-191.202	-92.596	0.092	0.026
-190.187	-126.980	0.114	0.017
-189.173	-14.795	-0.066	-0.042
-188.158	489.485	-0.052	0.118
-187.144	800.000	0.083	-0.260
-186.129	319.456	-0.213	0.402
-185.114	-8.369	0.329	-0.219
-184.100	-75.415	0.214	-0.076
-183.085	800.000	0.048	-0.180
-182.071	-123.457	0.336	-0.053
-181.056	574.349	-0.111	-0.269
-180.042	-200.000	0.004	0.318
-179.027	15.842	0.295	-0.231
-178.012	127.931	-0.042	0.053
-176.998	25.565	-0.070	-0.058
-175.983	-115.768	-0.041	-0.008
-174.969	800.000	-0.030	0.121
-173.954	-18.155	0.072	-0.045
-172.939	219.454	-0.094	0.150
-171.925	-133.312	-0.664	0.083
-170.910	800.000	0.040	0.164
-169.896	-100.814	-0.148	-0.036
-168.881	732.936	-0.122	0.323
-167.866	58.089	0.158	-0.153
-166.852	-119.077	0.163	0.028
-165.837	-112.835	-0.107	-0.021
-164.823	-200.000	-0.046	-0.223
-163.808	-200.000	-0.049	-0.218
-162.793	-107.805	0.193	0.042
-161.779	-153.804	0.259	0.018
-160.764	40.730	0.281	0.252
-159.750	-150.556	0.263	0.020
-158.735	239.820	-0.037	0.061
-157.720	-168.214	0.308	0.012
-156.706	-56.472	0.228	-0.100
-155.691	-200.000	-0.000	-0.094
-154.677	50.244	-0.098	-0.092
-153.662	76.621	-0.198	-0.208
-152.647	800.000	0.106	-0.375
-151.633	25.850	0.246	-0.203
-150.618	-48.651	-0.192	0.091
-149.604	-147.369	0.167	-0.014
-148.589	115.068	-0.118	-0.143
-147.574	-112.364	-0.072	0.014
-146.560	129.282	0.112	-0.142
-145.545	34.548	0.217	0.188
-144.531	-200.000	-0.016	-0.167
-143.516	-142.079	0.133	-0.013
-142.502	-67.396	-0.162	-0.063
-141.487	800.000	0.048	-0.188
-140.472	-200.000	0.005	0.103
-139.458	-27.272	-0.112	0.065
-138.443	-200.000	0.035	-0.308
-137.429	269.281	0.114	0.199
-136.414	-105.697	0.293	0.066
-135.399	295.167	0.175	0.317
-134.385	13.331	0.219	-0.168
-133.370	-93.196	0.401	0.110
-132.356	-22.348	0.141	0.085
-131.341	800.000	0.027	0.113
-130.326	-200.000	-0.069	0.344
-129.312	528.977	0.138	0.322
-128.297	-200.000	0.017	0.101
-127.283	-127.175	-0.439	0.064
-126.268	286.680	0.115	-0.205
-125.253	-43.578	0.141	-0.070
-124.239	-41.028	0.101	-0.052
-123.224	-200.000	0.033	0.240
-122.210	-97.658	-0.111	-0.029
