DTS Sentinel unit serial number:	SN413079Multiplexer serial number:	ORYXHardware model number:	OX4-SRSoftware version number:	ORYX F/W v4.00 Oryx Data Collector v3.7.2.0data status	okinstallation	princeton_trtdifferential loss correction	single-endedforward channel	channel 1reverse channel	N/Adate	2019/09/12time	11:40:11forward acquisition time	60.00reverse acquisition time	0.00gamma	496.2192k internal	0.2294k external	0.2294temperature offset calibration	1.0042default loss term (dB/km)	0.3790temperature slope calibration	1.0000multiplexer offset coefficient	1.0000multiplexer slope coefficient	1.0000fibre end	0.00T internal ref (°C)	39.62T ext. ref 1 (°C)	1.97T ext. ref 2 (°C)	37.31length (m)	temperature (°C)	Stokes	anti-Stokes-747.200	-200.000	0.015	-0.239
-746.185	-170.500	0.102	0.004
-745.171	622.875	0.040	0.102
-744.156	-200.000	0.039	0.305
-743.142	-200.000	0.009	0.162
-742.127	800.000	-0.045	-0.180
-741.112	81.257	-0.158	-0.174
-740.098	-200.000	-0.001	0.083
-739.083	-64.779	0.107	0.044
-738.069	-31.860	-0.450	0.258
-737.054	221.079	-0.099	-0.162
-736.039	218.218	-0.163	0.266
-735.025	-50.398	0.151	0.073
-734.010	-200.000	-0.506	0.000
-732.996	800.000	-0.047	0.138
-731.981	-99.935	0.173	0.044
-730.966	110.619	0.114	0.140
-729.952	-44.515	-0.142	0.073
-728.937	174.479	0.115	-0.170
-727.923	-93.595	0.162	0.046
-726.908	-43.841	0.170	-0.087
-725.894	493.086	-0.093	-0.217
-724.879	49.460	-0.189	-0.182
-723.864	140.778	-0.064	0.087
-722.850	-117.352	0.235	-0.044
-721.835	-152.705	-0.458	0.033
-720.821	201.980	0.122	-0.192
-719.806	-169.665	-0.154	-0.006
-718.791	-74.788	0.247	0.091
-717.777	649.229	-0.128	-0.334
-716.762	32.527	-0.266	0.235
-715.748	800.000	0.022	-0.064
-714.733	-71.206	0.193	0.074
-713.718	352.399	-0.126	-0.256
-712.704	-45.389	0.080	0.040
-711.689	615.973	-0.066	-0.169
-710.675	-200.000	0.005	0.096
-709.660	-61.796	0.194	0.083
-708.645	241.042	-0.084	-0.143
-707.631	-87.220	0.268	0.083
-706.616	-200.000	-0.013	0.174
-705.602	800.000	0.019	0.068
-704.587	-88.030	0.203	0.062
-703.572	-63.213	0.268	0.113
-702.558	-200.000	0.048	0.280
-701.543	64.219	0.139	-0.143
-700.529	-200.000	-0.008	-0.146
-699.514	-200.000	0.052	0.272
-698.499	-137.216	0.409	0.048
-697.485	-74.418	-0.051	-0.019
-696.470	-63.212	-0.306	0.129
-695.456	-200.000	-0.043	0.308
-694.441	-33.291	0.098	-0.055
-693.426	92.211	-0.064	0.074
-692.412	-43.530	-0.078	0.040
-691.397	145.275	-0.203	-0.278
-690.383	-16.207	-0.207	0.134
-689.368	-82.724	-0.099	-0.033
-688.354	-34.534	-0.115	0.064
-687.339	800.000	-0.112	-0.489
-686.324	800.000	0.174	-0.505
-685.310	-80.082	0.394	0.135
-684.295	800.000	-0.071	0.237
-683.281	-149.326	-0.205	-0.017
-682.266	-200.000	0.081	-0.388
-681.251	170.509	-0.117	0.171
-680.237	625.010	-0.117	-0.300
-679.222	-68.926	0.397	0.156
-678.208	-99.712	0.454	-0.116
-677.193	106.583	-0.253	0.306
-676.178	-200.000	-0.039	-0.248
-675.164	-200.000	-0.043	0.306
-674.149	452.646	0.105	-0.238
-673.135	-65.573	-0.256	-0.105
-672.120	19.388	-0.160	-0.131
-671.105	-84.889	-0.314	0.100
-670.091	-93.455	-0.151	0.043
-669.076	322.050	-0.154	-0.298
-668.062	-5.463	-0.167	0.117
-667.047	399.242	-0.160	-0.341
-666.032	39.545	0.066	0.061
-665.018	800.000	-0.023	0.086
-664.003	63.467	0.172	-0.176
-662.989	572.337	-0.094	-0.233
-661.974	-200.000	0.069	-0.445
-660.959	335.845	-0.058	0.114
-659.945	-200.000	-0.018	0.273
-658.930	162.425	0.158	0.226
-657.916	69.377	0.132	-0.138
-656.901	-152.545	-0.339	0.025
-655.886	221.813	0.103	-0.169
-654.872	-109.126	-0.180	0.039
-653.857	-6.416	-0.134	0.093
-652.843	-72.908	-0.202	0.076
-651.828	-42.852	-0.084	0.043
-650.814	800.000	-0.164	0.506
-649.799	644.632	0.100	0.261
-648.784	-105.582	0.146	-0.034
-647.770	-200.000	-0.030	0.351
-646.755	232.706	-0.204	-0.342
-645.741	318.685	0.109	0.211
-644.726	800.000	0.063	-0.189
-643.711	370.746	0.054	0.111
-642.697	-115.795	-0.196	0.037
-641.682	112.840	0.038	0.047
-640.668	-57.070	-0.193	0.087
-639.653	-96.285	-0.100	-0.027
-638.638	-86.738	-0.219	-0.068
-637.624	-200.000	0.037	-0.275
-636.609	-200.000	0.023	-0.376
-635.595	-150.494	0.286	-0.022
-634.580	-127.363	-0.268	-0.040
-633.565	793.777	-0.056	-0.158
-632.551	42.663	-0.131	0.121
-631.536	187.672	-0.121	0.184
-630.522	156.399	0.093	0.131
-629.507	-4.897	-0.258	0.181
-628.492	-102.729	-0.099	-0.024
-627.478	-24.476	-0.230	0.139
-626.463	-62.450	0.332	-0.141
-625.449	-114.628	-0.234	-0.046
-624.434	-49.333	0.260	-0.126
-623.419	138.853	-0.084	0.113
-622.405	-130.068	-0.159	-0.022
-621.390	-44.406	-0.115	-0.059
-620.376	128.685	0.251	-0.326
-619.361	53.268	-0.106	-0.103
-618.346	19.463	-0.251	-0.205
-617.332	-84.412	0.167	0.054
-616.317	105.183	0.079	0.095
-615.303	-47.113	0.268	-0.133
-614.288	509.125	0.031	-0.074
-613.273	114.109	-0.191	-0.236
-612.259	71.723	0.147	-0.156
-611.244	87.409	-0.064	-0.072
-610.230	-129.855	-0.343	0.048
-609.215	800.000	0.065	0.220
-608.201	-69.520	-0.537	-0.209
-607.186	160.628	-0.089	-0.126
-606.171	-98.329	-0.242	0.063
-605.157	800.000	-0.059	-0.197
-604.142	-124.875	0.161	-0.025
-603.128	-167.970	-0.129	0.005
-602.113	378.294	-0.126	-0.261
-601.098	-200.000	0.005	0.253
-600.084	-200.000	0.059	0.384
-599.069	800.000	0.076	-0.301
-598.055	-59.608	0.229	-0.100
-597.040	-200.000	0.046	-0.326
-596.025	-200.000	0.054	-0.536
-595.011	-95.257	-0.208	-0.057
-593.996	-155.661	0.081	-0.005
-592.982	800.000	0.084	0.248
-591.967	50.841	-0.077	-0.074
-590.952	60.610	-0.173	0.174
-589.938	256.188	0.127	0.221
-588.923	140.710	0.282	0.378
-587.909	151.977	-0.190	0.263
-586.894	800.000	0.096	0.280
-585.879	-200.000	0.096	0.493
-584.865	800.000	-0.013	-0.056
-583.850	-171.940	-0.308	0.010
-582.836	143.661	0.157	0.213
-581.821	55.063	0.237	0.232
-580.806	36.783	0.152	-0.137
-579.792	504.513	-0.013	-0.031
-578.777	194.504	-0.249	-0.384
-577.763	-21.972	-0.365	0.225
-576.748	-56.195	0.164	-0.074
-575.733	44.289	-0.110	0.103
-574.719	-200.000	-0.045	-0.270
-573.704	800.000	0.068	-0.191
-572.690	38.994	0.077	-0.070
-571.675	331.897	-0.029	0.056
-570.661	-54.116	0.296	-0.137
-569.646	85.087	0.164	0.183
-568.631	91.156	-0.218	-0.248
-567.617	48.847	-0.172	-0.164
-566.602	-67.687	0.041	0.016
-565.588	-164.759	0.236	0.011
-564.573	800.000	0.033	-0.108
-563.558	-200.000	-0.033	-0.228
-562.544	-8.304	-0.084	0.058
-561.529	160.646	0.055	-0.078
-560.515	72.507	0.118	0.124
-559.500	-200.000	-0.007	0.162
-558.485	-200.000	0.068	-0.478
-557.471	800.000	0.045	0.166
-556.456	-77.721	-0.126	-0.044
-555.442	89.675	0.057	0.065
-554.427	89.427	-0.216	0.245
-553.412	-151.388	-0.123	-0.009
-552.398	29.121	-0.038	-0.033
-551.383	673.161	-0.087	-0.229
-550.369	771.260	-0.170	-0.471
-549.354	-200.000	-0.069	-0.400
-548.339	-200.000	-0.011	0.097
-547.325	-185.114	0.305	0.005
-546.310	-34.026	0.135	0.076
-545.296	90.844	0.066	0.075
-544.281	-146.938	0.312	-0.027
-543.266	497.406	0.168	-0.392
-542.252	800.000	0.062	-0.268
-541.237	324.788	-0.067	0.131
-540.223	-54.753	0.292	-0.134
-539.208	122.058	-0.303	-0.384
-538.193	144.709	-0.271	0.368
-537.179	333.166	0.074	-0.144
-536.164	-95.798	-0.157	0.042
-535.150	-200.000	0.050	0.457
-534.135	-120.976	-0.234	0.040
-533.121	326.472	-0.062	0.120
-532.106	11.220	-0.235	0.182
-531.091	-194.280	0.135	-0.001
-530.077	15.533	-0.060	0.048
-529.062	-80.292	0.180	-0.061
-528.048	27.741	0.079	-0.067
-527.033	-200.000	-0.005	0.077
-526.018	-87.605	0.126	-0.039
-525.004	-197.055	-0.124	-0.001
-523.989	-102.861	-0.155	-0.037
-522.975	-200.000	0.028	-0.184
-521.960	-200.000	-0.035	0.412
-520.945	294.546	-0.144	-0.267
-519.931	-81.209	-0.141	-0.047
-518.916	-200.000	-0.017	-0.101
-517.902	430.582	-0.141	-0.310
-516.887	-200.000	0.013	0.256
-515.872	-124.586	-0.235	-0.037
-514.858	-72.482	0.073	-0.027
-513.843	552.170	-0.025	0.062
-512.829	-200.000	-0.023	-0.238
-511.814	-6.760	-0.226	-0.156
-510.799	91.422	-0.172	0.196
-509.785	-54.836	-0.335	0.153
-508.770	8.649	-0.148	-0.113
-507.756	-99.697	0.346	-0.088
-506.741	59.944	-0.298	0.299
-505.726	-179.974	0.155	0.003
-504.712	-107.400	-0.378	0.084
-503.697	131.349	-0.133	0.174
-502.683	-200.000	-0.031	0.211
-501.668	-200.000	-0.003	0.204
-500.653	9.299	0.081	0.062
-499.639	277.523	-0.041	0.074
-498.624	114.872	0.035	0.044
-497.610	-60.169	0.099	-0.043
-496.595	-143.117	0.116	0.011
-495.581	800.000	-0.039	0.152
-494.566	-110.355	0.116	0.024
-493.551	10.530	0.336	-0.259
-492.537	-71.287	0.490	0.186
-491.522	-52.454	-0.203	-0.095
-490.508	-200.000	-0.235	0.000
-489.493	-96.880	0.395	-0.105
-488.478	-141.590	-0.191	-0.020
-487.464	-138.538	-0.200	-0.022
-486.449	37.111	-0.056	-0.050
-485.435	94.532	0.162	-0.187
-484.420	446.696	0.080	0.178
-483.405	800.000	0.070	0.236
-482.391	404.967	-0.201	0.429
-481.376	-15.659	0.076	0.049
-480.362	800.000	-0.062	-0.244
-479.347	-28.315	-0.295	-0.173
-478.332	170.536	-0.039	0.057
-477.318	-114.472	-0.217	-0.042
-476.303	-200.000	-0.004	0.093
-475.289	131.647	0.097	0.126
-474.274	628.572	-0.031	-0.078
-473.259	30.114	-0.228	0.197
-472.245	-200.000	0.029	-0.381
-471.230	132.949	0.032	-0.041
-470.216	284.608	-0.041	-0.075
-469.201	-14.705	0.164	-0.107
-468.186	-161.879	0.247	-0.013
-467.172	-64.272	-0.274	0.113
-466.157	218.878	-0.099	0.160
-465.143	-161.930	-0.167	-0.009
-464.128	-78.426	-0.236	-0.082
-463.113	-147.098	-0.169	0.015
-462.099	19.911	-0.171	-0.140
-461.084	184.625	0.241	0.361
-460.070	24.578	-0.390	0.327
-459.055	45.730	0.040	0.037
-458.040	-101.621	-0.197	0.048
-457.026	-62.521	-0.127	0.054
-456.011	291.509	-0.029	-0.053
-454.997	-141.541	-0.206	0.021
-453.982	-81.945	0.224	-0.074
-452.968	-87.453	-0.462	0.141
-451.953	-52.854	-0.086	-0.040
-450.938	-46.374	-0.047	0.023
-449.924	2.863	-0.002	-0.002
-448.909	800.000	0.071	-0.237
-447.895	-15.068	0.131	-0.085
-446.880	-101.672	-0.284	-0.070
-445.865	212.861	0.175	0.278
-444.851	800.000	-0.056	0.228
-443.836	392.215	-0.092	0.192
-442.822	-125.918	0.084	-0.013
-441.807	45.832	-0.094	-0.088
-440.792	156.159	-0.168	-0.234
-439.778	-37.728	0.083	0.045
-438.763	-87.542	0.256	0.078
-437.749	-63.781	0.150	-0.062
-436.734	54.687	0.090	-0.088
-435.719	-121.767	0.156	0.026
-434.705	-200.000	0.022	0.168
-433.690	415.615	0.094	0.203
-432.676	163.518	-0.126	-0.180
-431.661	748.160	-0.120	-0.327
-430.646	58.600	0.267	-0.265
-429.632	-57.289	-0.061	-0.027
-428.617	60.204	0.227	-0.226
-427.603	-62.505	-0.159	0.067
-426.588	-31.304	-0.182	0.104
-425.573	664.571	-0.078	-0.203
-424.559	51.611	-0.279	-0.268
-423.544	430.923	-0.080	-0.176
-422.530	153.138	-0.083	0.115
-421.515	-200.000	-0.045	0.278
-420.500	203.158	0.054	-0.084
-419.486	-151.151	-0.085	-0.006
-418.471	-200.000	0.030	0.411
-417.457	-70.260	0.145	0.056
-416.442	146.913	-0.128	-0.173
-415.428	54.987	-0.198	-0.194
-414.413	-120.028	0.057	-0.010
-413.398	-80.629	-0.290	0.097
-412.384	26.733	-0.187	0.158
-411.369	-200.000	-0.043	-0.414
-410.355	-86.207	0.090	0.028
-409.340	121.073	0.078	0.098
-408.325	787.775	0.073	-0.203
-407.311	-177.465	-0.279	-0.007
-406.296	-19.057	0.075	0.047
-405.282	-64.564	0.110	0.045
-404.267	197.149	-0.173	-0.267
-403.252	-3.009	-0.122	0.086
-402.238	-200.000	-0.067	0.443
-401.223	800.000	-0.053	0.190
-400.209	-157.604	-0.169	-0.010
-399.194	-130.101	0.245	-0.034
-398.179	-200.000	0.017	-0.205
-397.165	-200.000	0.008	-0.048
-396.150	42.486	-0.122	0.112
-395.136	-8.595	-0.121	0.082
-394.121	347.008	-0.146	-0.289
-393.106	-83.354	-0.224	0.072
-392.092	800.000	-0.088	0.342
-391.077	-93.307	-0.294	0.082
-390.063	-60.348	-0.200	0.086
-389.048	-134.169	0.275	0.034
-388.033	-200.000	0.022	0.106
-387.019	-53.866	0.289	-0.133
-386.004	692.485	-0.054	-0.143
-384.990	-85.845	0.263	-0.082
-383.975	-200.000	-0.033	-0.201
-382.960	-39.391	0.428	-0.226
-381.946	-200.000	0.042	-0.210
-380.931	272.872	-0.127	0.226
-379.917	-85.181	-0.174	0.055
-378.902	-118.885	0.406	-0.072
-377.888	-89.463	0.309	0.092
-376.873	-200.000	0.007	0.290
-375.858	-131.287	0.265	-0.035
-374.844	105.774	0.223	-0.266
-373.829	-86.569	0.318	-0.098
-372.815	-200.000	0.008	-0.230
-371.800	-125.744	-0.231	0.035
-370.785	438.873	-0.099	0.218
-369.771	-186.719	0.079	0.001
-368.756	-44.660	-0.209	0.105
-367.742	139.977	0.148	-0.197
-366.727	39.849	-0.292	-0.264
-365.712	800.000	0.040	-0.127
-364.698	-154.173	-0.245	0.017
-363.683	-31.888	0.167	0.094
-362.669	-51.158	-0.175	0.083
-361.654	-39.832	0.206	-0.108
-360.639	129.662	0.143	0.184
-359.625	406.818	-0.022	0.048
-358.610	-81.222	0.382	-0.127
-357.596	103.987	-0.126	0.149
-356.581	-200.000	-0.044	-0.300
-355.566	-173.183	0.426	0.013
-354.552	800.000	-0.118	0.382
-353.537	800.000	0.039	0.119
-352.523	-49.708	-0.221	-0.106
-351.508	-79.785	0.030	-0.010
-350.493	-53.922	0.236	-0.108
-349.479	-34.244	-0.219	0.121
-348.464	-119.968	0.352	0.061
-347.450	-138.053	0.169	0.019
-346.435	347.881	-0.093	0.185
-345.420	-200.000	0.015	0.261
-344.406	24.452	-0.093	-0.078
-343.391	483.475	-0.165	-0.378
-342.377	-167.493	-0.043	0.002
-341.362	-78.330	-0.014	-0.005
-340.348	-200.000	0.025	-0.122
-339.333	-200.000	-0.028	-0.135
-338.318	-74.580	0.109	0.040
-337.304	184.805	0.076	0.114
-336.289	75.700	0.192	-0.204
-335.275	135.599	0.201	0.263
-334.260	-103.706	0.216	0.051
-333.245	84.617	0.189	0.208
-332.231	-37.936	0.046	0.025
-331.216	-1.065	0.289	0.206
-330.202	107.599	0.172	0.206
-329.187	349.082	0.068	0.135
-328.172	-126.278	0.178	-0.027
-327.158	-200.000	0.042	-0.252
-326.143	-79.237	0.347	-0.118
-325.129	31.289	-0.183	-0.158
-324.114	-146.463	-0.134	-0.012
-323.099	48.760	0.188	-0.178
-322.085	800.000	-0.085	0.254
-321.070	-83.380	0.237	-0.076
-320.056	81.238	0.141	-0.153
-319.041	-100.154	0.236	-0.059
-318.026	124.500	-0.055	-0.069
-317.012	-89.611	-0.256	0.076
-315.997	-200.000	0.052	-0.276
-314.983	98.470	-0.094	0.108
-313.968	268.984	-0.007	0.013
-312.953	0.892	0.053	-0.038
-311.939	25.895	-0.163	0.136
-310.924	800.000	-0.076	-0.241
-309.910	-43.777	0.099	-0.050
-308.895	177.961	0.144	0.211
-307.880	-178.194	0.191	0.005
-306.866	2.636	0.192	-0.140
-305.851	-140.248	0.180	-0.019
-304.837	-76.817	-0.245	0.086
-303.822	-51.907	-0.251	0.117
-302.807	736.957	0.115	-0.310
-301.793	-200.000	0.013	0.082
-300.778	597.758	-0.109	-0.270
-299.764	-164.003	-0.233	-0.011
-298.749	36.337	0.101	0.089
-297.735	-200.000	-0.013	-0.134
-296.720	-7.388	-0.203	0.138
-295.705	56.468	-0.268	0.262
-294.691	26.836	-0.227	-0.191
-293.676	800.000	-0.047	-0.137
-292.662	203.178	-0.207	-0.322
-291.647	248.894	0.227	0.387
-290.632	-35.279	0.138	-0.076
-289.618	275.119	0.031	-0.056
-288.603	-135.994	-0.066	-0.008
-287.589	20.371	-0.101	0.082
-286.574	800.000	0.045	-0.168
-285.559	800.000	0.043	-0.160
-284.545	-200.000	0.016	-0.082
-283.530	-200.000	-0.068	0.322
-282.516	-200.000	-0.018	0.301
-281.501	-200.000	-0.009	0.044
-280.486	800.000	0.042	0.142
-279.472	-200.000	0.005	0.102
-278.457	-123.158	-0.162	-0.026
-277.443	10.840	-0.134	0.103
-276.428	137.360	-0.055	0.072
-275.413	-45.855	-0.081	0.040
-274.399	-28.436	0.385	-0.223
-273.384	628.212	0.134	0.341
-272.370	93.998	0.119	-0.136
-271.355	328.198	0.191	0.369
-270.340	-142.838	-0.062	0.006
-269.326	-200.000	-0.028	-0.125
-268.311	3.752	-0.203	-0.149
-267.297	611.001	0.017	0.042
-266.282	-40.286	0.134	-0.070
-265.267	27.457	-0.176	-0.149
-264.253	-36.703	-0.296	0.160
-263.238	237.663	0.224	0.373
-262.224	-124.612	0.350	0.055
-261.209	-200.000	-0.019	-0.252
-260.195	800.000	-0.048	0.187
-259.180	20.933	-0.109	-0.089
-258.165	129.186	0.131	0.168
-257.151	-126.631	0.139	0.021
-256.136	152.560	0.056	-0.076
-255.122	800.000	0.051	-0.162
-254.107	299.192	-0.067	0.123
-253.092	97.913	-0.265	-0.305
-252.078	-200.000	-0.004	0.235
-251.063	608.144	-0.089	0.224
-250.049	-5.899	-0.367	0.252
-249.034	544.480	-0.063	-0.152
-248.019	48.148	0.073	-0.069
-247.005	800.000	0.059	-0.173
-245.990	-17.251	0.294	-0.186
-244.976	800.000	-0.204	0.856
-243.961	-200.000	-0.011	0.208
-242.946	17.544	-0.082	0.065
-241.932	43.446	0.147	-0.135
-240.917	800.000	0.101	-0.300
-239.903	786.530	-0.111	0.306
-238.888	141.146	0.185	0.245
-237.873	800.000	0.084	0.275
-236.859	482.160	-0.100	0.228
-235.844	-200.000	0.087	-0.389
-234.830	-57.038	-0.161	-0.071
-233.815	407.225	-0.118	-0.250
-232.800	75.908	-0.012	-0.013
-231.786	581.334	0.076	0.187
-230.771	15.255	0.149	0.117
-229.757	480.025	-0.161	-0.366
-228.742	55.608	0.203	-0.198
-227.727	-5.737	0.167	0.115
-226.713	-73.284	-0.102	-0.037
-225.698	12.039	-0.115	-0.089
-224.684	322.148	-0.024	-0.046
-223.669	-200.000	-0.008	0.280
-222.655	321.677	-0.093	0.178
-221.640	-110.860	0.212	-0.044
-220.625	49.082	-0.274	-0.258
-219.611	93.015	0.375	0.425
-218.596	-0.164	0.225	0.161
-217.582	295.227	0.235	0.431
-216.567	-106.541	0.396	0.088
-215.552	-52.488	0.085	-0.039
-214.538	-4.315	-0.120	-0.083
-213.523	17.872	-0.245	-0.195
-212.509	36.767	0.205	0.182
-211.494	-46.401	0.046	-0.023
-210.479	69.376	0.063	0.065
-209.465	-64.553	0.177	-0.072
-208.450	74.651	-0.196	0.207
-207.436	89.903	-0.092	-0.103
-206.421	127.451	0.040	0.051
-205.406	-42.904	-0.147	-0.075
-204.392	800.000	-0.061	-0.202
-203.377	-67.487	0.129	-0.051
-202.363	-173.095	-0.123	0.004
-201.348	-35.843	-0.287	-0.156
-200.333	-200.000	-0.022	-0.097
-199.319	-36.972	-0.105	-0.056
-198.304	317.229	-0.105	0.199
-197.290	271.628	0.182	0.321
-196.275	4.538	0.263	-0.194
-195.260	60.564	0.218	0.216
-194.246	146.112	0.091	-0.123
-193.231	-200.000	-0.046	0.291
-192.217	35.483	0.170	-0.149
-191.202	-138.385	0.208	0.023
-190.187	591.843	0.041	0.100
-189.173	39.072	-0.124	0.111
-188.158	-109.117	-0.234	-0.050
-187.144	-91.680	0.151	0.043
-186.129	21.543	-0.271	0.220
-185.114	-200.000	0.166	0.000
-184.100	-101.550	0.245	-0.060
-183.085	15.113	-0.257	-0.202
-182.071	800.000	0.048	-0.196
-181.056	-200.000	0.052	0.243
-180.042	130.527	0.215	0.276
-179.027	137.540	-0.068	-0.089
-178.012	-102.649	-0.390	-0.093
-176.998	-178.654	0.197	0.005
-175.983	-86.632	0.236	-0.072
-174.969	800.000	-0.015	-0.064
-173.954	-32.022	0.221	-0.123
-172.939	-200.000	0.003	-0.145
-171.925	253.553	0.166	-0.284
-170.910	-200.000	0.022	-0.393
-169.896	196.031	0.198	0.301
-168.881	238.622	0.139	0.231
-167.866	-160.179	0.114	0.006
-166.852	49.733	0.155	-0.146
-165.837	181.698	0.116	-0.171
-164.823	-200.000	-0.036	0.166
-163.808	-200.000	0.073	0.334
-162.793	121.217	-0.152	0.189
-161.779	-60.256	0.172	-0.073
-160.764	152.426	0.136	-0.185
-159.750	292.527	0.048	0.087
-158.735	-200.000	0.017	0.099
-157.720	114.326	0.164	-0.200
-156.706	-152.799	0.091	-0.006
-155.691	83.748	0.245	-0.267
-154.677	21.256	-0.081	-0.066
-153.662	360.625	0.067	-0.134
-152.647	-134.400	-0.070	-0.009
-151.633	248.731	0.026	-0.044
-150.618	-200.000	-0.021	0.185
-149.604	-188.467	-0.279	-0.003
-148.589	-200.000	0.004	0.092
-147.574	-200.000	0.023	-0.267
-146.560	5.509	0.115	-0.085
-145.545	-200.000	0.004	0.039
-144.531	-145.134	0.387	-0.035
-143.516	-174.101	-0.170	-0.005
-142.502	-200.000	0.073	-0.492
-141.487	165.878	-0.128	0.181
-140.472	-200.000	0.026	-0.235
-139.458	-91.228	-0.052	-0.015
-138.443	3.995	-0.110	-0.081
-137.429	-158.971	-0.090	-0.005
-136.414	-15.108	0.098	-0.063
-135.399	-181.290	0.200	0.004
-134.385	482.798	0.045	0.102
-133.370	-200.000	0.001	0.082
-132.356	-46.894	0.124	0.061
-131.341	4.173	-0.102	-0.074
-130.326	-84.752	-0.296	-0.093
-129.312	44.916	-0.162	0.149
-128.297	-200.000	0.049	-0.338
-127.283	800.000	0.051	-0.214
-126.268	-77.872	0.335	-0.116
-125.253	-89.810	-0.485	-0.142
-124.239	-1.257	0.226	-0.159
-123.224	-47.706	0.165	0.080
-122.210	-200.000	-0.022	0.128
-121.195	-200.000	0.010	0.109
