DTS Sentinel unit serial number:	SN413079Multiplexer serial number:	ORYXHardware model number:	OX4-SRSoftware version number:	ORYX F/W v4.00 Oryx Data Collector v3.7.2.0data status	okinstallation	princeton_trtdifferential loss correction	single-endedforward channel	channel 1reverse channel	N/Adate	2019/09/13time	12:10:35forward acquisition time	60.00reverse acquisition time	0.00gamma	496.2192k internal	0.2310k external	0.2310temperature offset calibration	1.0164default loss term (dB/km)	0.3790temperature slope calibration	1.0000multiplexer offset coefficient	1.0000multiplexer slope coefficient	1.0000fibre end	0.00T internal ref (°C)	33.87T ext. ref 1 (°C)	4.61T ext. ref 2 (°C)	31.14length (m)	temperature (°C)	Stokes	anti-Stokes-747.200	-200.000	-0.008	-0.131
-746.185	750.883	-0.051	0.140
-745.171	88.492	0.120	0.135
-744.156	53.689	-0.039	0.038
-743.142	230.920	-0.163	-0.271
-742.127	-53.707	-0.066	0.031
-741.112	3.094	0.135	-0.100
-740.098	-40.073	-0.322	-0.171
-739.083	-53.029	-0.177	-0.083
-738.069	-96.147	-0.220	0.059
-737.054	-67.864	-0.177	0.070
-736.039	-139.189	-0.351	0.038
-735.025	102.278	0.049	0.058
-734.010	-200.000	0.019	-0.128
-732.996	39.333	0.166	-0.151
-731.981	-65.139	-0.192	0.079
-730.966	171.023	0.066	0.097
-729.952	-145.414	0.164	0.015
-728.937	77.687	-0.171	-0.185
-727.923	-132.838	0.139	0.018
-726.908	-130.266	-0.394	0.054
-725.894	-43.939	-0.141	0.072
-724.879	-73.779	0.253	-0.093
-723.864	27.051	-0.104	0.089
-722.850	800.000	-0.038	-0.114
-721.835	-15.977	0.248	0.160
-720.821	-66.190	-0.253	0.102
-719.806	-156.865	-0.093	0.006
-718.791	-143.796	0.323	-0.031
-717.777	1.952	-0.303	-0.222
-716.762	-111.046	-0.291	-0.061
-715.748	-115.214	0.257	0.049
-714.733	-91.058	-0.122	-0.035
-713.718	-122.603	-0.047	-0.008
-712.704	-200.000	-0.007	0.073
-711.689	199.251	0.108	-0.168
-710.675	-200.000	0.012	-0.128
-709.660	113.757	0.106	-0.130
-708.645	-51.388	-0.124	-0.059
-707.631	105.600	0.214	-0.256
-706.616	228.242	-0.097	-0.160
-705.602	800.000	0.041	-0.179
-704.587	482.073	0.084	-0.192
-703.572	-121.193	0.169	0.029
-702.558	-8.830	0.224	-0.152
-701.543	-75.250	-0.136	0.049
-700.529	52.377	0.196	0.190
-699.514	800.000	0.120	0.359
-698.499	-73.940	-0.375	0.138
-697.485	-135.455	-0.196	-0.024
-696.470	-94.817	0.190	-0.052
-695.456	-85.739	0.167	-0.053
-694.441	171.818	-0.056	0.082
-693.426	37.980	-0.030	0.027
-692.412	-61.930	0.094	-0.040
-691.397	154.705	-0.111	0.155
-690.383	-56.374	0.025	0.011
-689.368	45.758	0.120	0.112
-688.354	-200.000	0.025	0.383
-687.339	-200.000	-0.010	-0.114
-686.324	-124.771	0.083	-0.013
-685.310	-200.000	-0.018	-0.138
-684.295	800.000	-0.091	-0.272
-683.281	19.539	0.208	-0.169
-682.266	-200.000	-0.088	0.557
-681.251	72.466	-0.217	-0.229
-680.237	-130.404	0.174	-0.024
-679.222	-200.000	0.037	0.270
-678.208	-176.092	0.196	0.005
-677.193	33.628	0.143	0.126
-676.178	-200.000	-0.002	-0.182
-675.164	86.397	-0.237	0.264
-674.149	-112.570	0.186	-0.038
-673.135	-200.000	0.003	0.268
-672.120	-2.163	-0.466	-0.331
-671.105	-200.000	0.007	-0.174
-670.091	69.654	0.076	-0.079
-669.076	113.576	0.185	-0.227
-668.062	-44.937	-0.293	-0.148
-667.047	77.526	0.079	0.085
-666.032	-200.000	-0.005	-0.030
-665.018	-200.000	0.012	0.219
-664.003	800.000	-0.129	0.467
-662.989	-49.498	-0.329	-0.159
-661.974	-200.000	-0.046	-0.238
-660.959	-200.000	-0.005	0.044
-659.945	43.822	-0.087	-0.080
-658.930	-200.000	0.013	-0.339
-657.916	393.917	0.082	0.172
-656.901	-200.000	0.052	0.360
-655.886	-7.943	-0.344	-0.235
-654.872	-35.051	-0.182	-0.100
-653.857	345.500	-0.310	-0.617
-652.843	-44.722	-0.247	-0.125
-651.828	-40.270	0.238	-0.125
-650.814	-200.000	0.034	0.168
-649.799	300.230	0.221	0.412
-648.784	-200.000	0.005	-0.182
-647.770	174.018	0.091	-0.133
-646.755	-29.533	0.041	-0.024
-645.741	36.983	0.133	0.119
-644.726	-71.238	0.321	-0.122
-643.711	-200.000	0.013	0.238
-642.697	670.674	0.144	0.377
-641.682	36.544	0.231	0.207
-640.668	-149.074	0.044	-0.004
-639.653	-104.487	-0.489	-0.114
-638.638	15.720	-0.200	-0.159
-637.624	99.096	0.161	-0.188
-636.609	338.733	0.025	0.048
-635.595	-200.000	0.048	0.220
-634.580	-200.000	0.016	-0.169
-633.565	86.870	-0.190	-0.213
-632.551	-142.097	-0.325	0.033
-631.536	-200.000	0.004	0.147
-630.522	132.928	0.149	0.195
-629.507	-76.418	0.208	-0.074
-628.492	144.538	0.105	-0.142
-627.478	-53.429	-0.360	-0.167
-626.463	43.198	0.136	0.126
-625.449	233.002	-0.086	-0.142
-624.434	351.580	0.177	-0.355
-623.419	800.000	-0.047	0.174
-622.405	639.537	0.121	0.311
-621.390	156.334	-0.160	-0.223
-620.376	157.087	-0.144	0.201
-619.361	-39.184	0.042	-0.023
-618.346	269.777	-0.130	0.230
-617.332	-82.193	0.327	-0.108
-616.317	800.000	0.055	0.200
-615.303	161.254	0.141	-0.200
-614.288	228.955	-0.154	-0.253
-613.273	140.614	0.136	-0.182
-612.259	800.000	-0.052	0.164
-611.244	800.000	-0.107	0.352
-610.230	100.902	-0.150	-0.176
-609.215	482.837	0.078	0.180
-608.201	86.157	-0.290	0.323
-607.186	-200.000	-0.043	0.192
-606.171	311.899	0.123	0.233
-605.157	141.650	0.072	-0.096
-604.142	-98.300	-0.088	-0.023
-603.128	-200.000	0.018	-0.106
-602.113	-184.777	-0.214	0.003
-601.098	-51.981	0.278	0.131
-600.084	-27.428	0.103	-0.061
-599.069	67.797	0.319	-0.329
-598.055	48.667	0.254	-0.240
-597.040	-16.742	0.222	-0.142
-596.025	11.246	0.237	-0.183
-595.011	442.836	0.084	0.186
-593.996	-108.632	-0.335	-0.073
-592.982	94.963	-0.065	-0.075
-591.967	800.000	-0.056	-0.249
-590.952	104.792	-0.082	-0.097
-589.938	204.319	0.063	-0.098
-588.923	-200.000	0.034	-0.163
-587.909	800.000	0.150	0.450
-586.894	265.733	0.123	0.217
-585.879	96.774	-0.071	0.082
-584.865	-25.685	-0.138	-0.082
-583.850	-46.157	-0.382	0.190
-582.836	107.782	-0.241	0.290
-581.821	800.000	0.056	-0.202
-580.806	-27.831	-0.287	0.168
-579.792	-11.197	-0.274	-0.182
-578.777	17.321	0.208	0.166
-577.763	800.000	0.071	0.228
-576.748	401.075	-0.010	-0.021
-575.733	-123.079	0.279	0.045
-574.719	-200.000	0.044	-0.238
-573.704	-144.887	0.133	-0.012
-572.690	90.391	-0.334	-0.377
-571.675	800.000	0.045	-0.150
-570.661	-200.000	-0.026	-0.176
-569.646	-136.847	0.362	-0.042
-568.631	-74.316	-0.105	0.038
-567.617	-200.000	0.022	0.200
-566.602	-44.268	-0.112	0.057
-565.588	-12.469	-0.146	0.096
-564.573	547.380	0.077	0.185
-563.558	800.000	0.030	-0.084
-562.544	146.968	-0.115	-0.156
-561.529	441.081	0.025	-0.055
-560.515	800.000	-0.066	0.290
-559.500	389.453	-0.039	-0.081
-558.485	118.402	0.083	0.103
-557.471	-26.241	0.068	-0.040
-556.456	35.127	-0.130	0.115
-555.442	548.789	-0.129	0.312
-554.427	-82.697	0.067	-0.022
-553.412	15.766	0.150	-0.119
-552.398	-52.684	-0.155	-0.072
-551.383	22.454	0.197	0.163
-550.369	-31.433	0.180	0.102
-549.354	170.840	0.032	-0.046
-548.339	56.570	0.206	0.202
-547.325	112.401	-0.092	-0.112
-546.310	-64.573	0.218	-0.089
-545.296	-26.025	0.018	-0.011
-544.281	-46.239	-0.131	0.065
-543.266	-65.372	0.089	0.036
-542.252	437.486	-0.025	0.054
-541.237	-67.605	-0.210	-0.083
-540.223	800.000	-0.131	-0.421
-539.208	-65.292	0.159	0.065
-538.193	-86.073	-0.119	0.037
-537.179	5.336	-0.363	-0.269
-536.164	786.689	-0.063	-0.174
-535.150	211.320	0.048	-0.077
-534.135	-24.893	0.037	-0.022
-533.121	180.035	-0.097	-0.143
-532.106	800.000	-0.117	-0.425
-531.091	249.257	0.099	0.169
-530.077	-200.000	0.089	0.434
-529.062	8.021	-0.056	0.042
-528.048	469.758	-0.064	-0.146
-527.033	59.670	-0.148	0.147
-526.018	514.558	0.069	-0.161
-525.004	-42.085	-0.293	-0.151
-523.989	-200.000	0.066	0.315
-522.975	800.000	-0.088	0.244
-521.960	-113.668	0.183	0.036
-520.945	2.197	-0.236	-0.172
-519.931	-130.273	0.170	0.023
-518.916	-11.413	-0.038	-0.025
-517.902	95.988	-0.153	0.175
-516.887	-200.000	-0.001	0.384
-515.872	-24.002	-0.092	0.055
-514.858	-142.433	0.276	-0.027
-513.843	800.000	0.039	0.124
-512.829	-200.000	-0.028	-0.285
-511.814	275.305	-0.063	0.112
-510.799	-92.641	-0.148	-0.042
-509.785	-26.352	-0.041	0.024
-508.770	-70.707	-0.197	0.075
-507.756	-150.203	-0.323	-0.025
-506.741	-129.401	0.171	0.024
-505.726	335.218	0.044	0.086
-504.712	164.072	-0.107	0.152
-503.697	155.797	0.146	-0.202
-502.683	-148.593	-0.082	0.007
-501.668	-85.093	-0.135	0.043
-500.653	-127.427	-0.398	-0.058
-499.639	104.502	0.043	-0.051
-498.624	242.146	-0.193	-0.325
-497.610	-112.189	0.102	-0.021
-496.595	-29.742	-0.145	0.083
-495.581	99.833	0.256	-0.298
-494.566	800.000	-0.075	-0.236
-493.551	-157.455	0.203	-0.012
-492.537	-16.975	-0.078	0.050
-491.522	76.148	-0.150	0.160
-490.508	-121.348	0.026	0.004
-489.493	202.571	0.089	-0.138
-488.478	691.144	0.017	0.045
-487.464	-61.551	-0.167	-0.070
-486.449	356.901	-0.057	0.114
-485.435	-200.000	0.038	0.243
-484.420	-200.000	0.002	-0.183
-483.405	-200.000	0.030	-0.232
-482.391	-79.776	0.181	0.061
-481.376	-34.261	0.194	0.107
-480.362	-98.134	0.140	-0.036
-479.347	22.080	0.280	-0.229
-478.332	800.000	-0.068	0.236
-477.318	195.067	0.275	-0.419
-476.303	-40.858	0.325	-0.169
-475.289	-200.000	-0.026	-0.431
-474.274	-200.000	-0.039	-0.258
-473.259	800.000	-0.102	-0.293
-472.245	-200.000	-0.012	-0.083
-471.230	800.000	0.065	-0.236
-470.216	305.408	0.107	-0.199
-469.201	126.136	0.168	-0.213
-468.186	-122.667	0.179	-0.029
-467.172	197.256	-0.075	-0.115
-466.157	-83.241	0.194	-0.063
-465.143	-34.832	-0.278	0.153
-464.128	445.687	0.068	0.150
-463.113	-111.092	-0.377	0.078
-462.099	800.000	0.032	-0.091
-461.084	800.000	0.025	0.093
-460.070	195.420	0.060	0.091
-459.055	-200.000	0.011	-0.223
-458.040	800.000	0.062	-0.234
-457.026	-200.000	-0.038	-0.298
-456.011	800.000	-0.035	-0.123
-454.997	-200.000	0.102	0.000
-453.982	-111.548	0.225	-0.046
-452.968	139.599	-0.063	0.083
-451.953	-49.252	-0.189	-0.091
-450.938	-163.145	0.231	0.011
-449.924	-200.000	-0.013	-0.269
-448.909	-109.307	-0.217	0.046
-447.895	47.025	-0.263	0.246
-446.880	422.065	-0.096	0.207
-445.865	-9.048	-0.202	0.135
-444.851	151.273	-0.127	0.173
-443.836	800.000	0.043	-0.185
-442.822	-200.000	-0.001	0.024
-441.807	-9.806	-0.167	-0.112
-440.792	-28.963	-0.177	-0.102
-439.778	-125.493	0.185	0.028
-438.763	-76.043	0.117	-0.042
-437.749	377.613	0.114	0.233
-436.734	-5.344	-0.093	0.064
-435.719	68.205	-0.130	-0.133
-434.705	96.934	-0.190	-0.219
-433.690	250.562	-0.149	0.255
-432.676	-17.082	0.103	0.065
-431.661	-45.029	-0.234	0.117
-430.646	-175.538	0.282	-0.008
-429.632	171.755	0.136	0.197
-428.617	77.995	0.350	-0.374
-427.603	-29.738	-0.114	-0.065
-426.588	-67.506	0.137	-0.054
-425.573	-148.376	-0.193	-0.016
-424.559	-200.000	-0.084	-0.406
-423.544	-96.429	0.234	-0.062
-422.530	149.508	-0.143	0.194
-421.515	-50.094	0.373	0.177
-420.500	-200.000	0.009	0.149
-419.486	-106.630	-0.089	0.020
-418.471	5.526	-0.210	-0.155
-417.457	-28.090	0.048	-0.028
-416.442	12.862	-0.284	0.220
-415.428	-168.771	-0.354	0.013
-414.413	-98.570	0.228	-0.058
-413.398	-200.000	-0.016	-0.080
-412.384	-172.383	-0.473	-0.015
-411.369	53.674	0.176	0.170
-410.355	-157.562	0.101	-0.006
-409.340	-109.775	0.131	-0.028
-408.325	58.123	0.098	-0.096
-407.311	-21.673	0.256	-0.156
-406.296	-200.000	0.046	0.301
-405.282	-3.743	-0.342	0.238
-404.267	800.000	0.089	-0.283
-403.252	-200.000	-0.052	-0.623
-402.238	-200.000	0.022	0.255
-401.223	-90.300	0.436	-0.127
-400.209	-198.475	-0.355	-0.002
-399.194	11.287	0.121	0.093
-398.179	-200.000	-0.055	-0.242
-397.165	800.000	-0.124	-0.352
-396.150	-119.666	-0.429	-0.074
-395.136	-66.171	0.303	0.121
-394.121	665.302	0.101	-0.260
-393.106	113.458	-0.112	0.136
-392.092	651.959	-0.072	0.185
-391.077	-104.848	-0.176	-0.041
-390.063	152.743	-0.180	0.247
-389.048	-55.979	-0.063	0.028
-388.033	-200.000	0.068	0.408
-387.019	152.291	-0.237	0.324
-386.004	-123.671	-0.143	0.023
-384.990	45.509	0.167	0.154
-383.975	800.000	0.063	0.245
-382.960	-108.500	0.269	-0.058
-381.946	418.240	0.063	0.134
-380.931	398.458	0.079	-0.165
-379.917	-75.266	-0.410	0.146
-378.902	-9.297	-0.088	0.059
-377.888	-200.000	0.043	-0.227
-376.873	-89.339	-0.245	0.072
-375.858	-101.781	0.195	-0.047
-374.844	22.041	-0.224	0.183
-373.829	-15.309	-0.154	-0.098
-372.815	-200.000	0.038	-0.188
-371.800	-200.000	-0.036	-0.217
-370.785	335.582	0.044	-0.085
-369.771	-159.396	-0.229	0.013
-368.756	13.177	0.100	0.078
-367.742	-200.000	-0.013	0.225
-366.727	-65.070	0.377	0.152
-365.712	601.649	-0.099	-0.246
-364.698	-136.806	0.035	0.004
-363.683	2.963	-0.028	0.021
-362.669	-200.000	-0.019	-0.101
-361.654	327.579	-0.035	-0.067
-360.639	31.075	0.269	-0.231
-359.625	800.000	0.046	-0.157
-358.610	-157.378	-0.121	0.007
-357.596	4.393	-0.138	-0.102
-356.581	-200.000	0.015	-0.136
-355.566	261.165	0.159	0.274
-354.552	-200.000	-0.047	0.399
-353.537	-200.000	0.214	-0.001
-352.523	800.000	0.069	-0.196
-351.508	-78.946	-0.103	0.035
-350.493	161.010	-0.113	-0.157
-349.479	800.000	0.019	-0.063
-348.464	183.774	-0.218	0.323
-347.450	535.905	0.087	0.206
-346.435	-200.000	0.005	-0.066
-345.420	800.000	-0.070	-0.211
-344.406	121.448	0.104	-0.130
-343.391	-59.301	0.094	0.040
-342.377	19.738	-0.153	0.123
-341.362	720.041	-0.005	-0.014
-340.348	-162.821	-0.161	-0.008
-339.333	122.814	0.114	0.143
-338.318	47.940	-0.140	0.131
-337.304	-129.964	-0.124	0.017
-336.289	-34.950	-0.183	0.100
-335.275	226.028	0.210	-0.340
-334.260	281.750	-0.179	-0.321
-333.245	-200.000	-0.004	0.171
-332.231	530.110	-0.074	0.174
-331.216	-200.000	0.037	0.192
-330.202	210.319	-0.060	0.095
-329.187	800.000	0.039	0.170
-328.172	800.000	-0.062	-0.227
-327.158	-118.407	0.228	0.040
-326.143	-147.644	0.140	0.012
-325.129	19.130	-0.102	-0.082
-324.114	-35.500	0.128	0.070
-323.099	15.135	0.333	-0.261
-322.085	78.303	0.187	-0.199
-321.070	-200.000	0.052	0.333
-320.056	-140.541	-0.239	-0.025
-319.041	-1.696	0.226	-0.159
-318.026	-13.259	-0.274	0.178
-317.012	-45.784	-0.136	-0.067
-315.997	-200.000	0.043	0.252
-314.983	-200.000	-0.043	0.254
-313.968	129.031	0.147	0.188
-312.953	34.706	-0.051	0.045
-311.939	150.430	-0.333	-0.452
-310.924	-85.849	-0.145	-0.045
-309.910	800.000	0.074	-0.237
-308.895	-63.333	0.232	0.095
-307.880	-156.145	0.077	-0.005
-306.866	455.461	0.045	-0.099
-305.851	-200.000	-0.025	-0.208
-304.837	-200.000	0.035	-0.173
-303.822	-200.000	-0.040	-0.463
-302.807	-157.961	-0.337	-0.020
-301.793	261.265	-0.119	-0.205
-300.778	-200.000	0.022	0.408
-299.764	101.484	0.318	0.370
-298.749	-57.130	-0.401	-0.176
-297.735	-58.605	0.264	0.114
-296.720	149.598	0.044	0.060
-295.705	-164.960	0.354	0.016
-294.691	-70.916	0.095	-0.036
-293.676	68.516	0.152	-0.156
-292.662	-142.136	-0.208	-0.021
-291.647	10.462	-0.149	-0.113
-290.632	-68.209	0.110	0.043
-289.618	-67.182	-0.249	-0.098
-288.603	-14.565	-0.098	-0.063
-287.589	52.417	-0.138	0.131
-286.574	-169.700	0.270	-0.010
-285.559	77.442	0.473	0.502
-284.545	-123.653	-0.238	-0.038
-283.530	-6.668	-0.227	0.154
-282.516	-200.000	0.034	0.267
-281.501	-113.637	-0.151	-0.029
-280.486	-71.773	-0.302	-0.112
-279.472	-70.916	-0.057	0.021
-278.457	-200.000	-0.038	0.329
-277.443	328.263	0.134	-0.257
-276.428	-64.497	-0.215	-0.087
-275.413	321.615	0.101	-0.192
-274.399	225.165	-0.124	0.201
-273.384	-48.695	0.265	0.127
-272.370	-22.388	0.114	-0.069
-271.355	17.659	-0.139	-0.110
-270.340	76.965	0.151	0.160
-269.326	124.828	0.252	-0.316
-268.311	-84.403	0.330	0.104
-267.297	-62.142	0.219	0.091
-266.282	-155.302	-0.224	-0.014
-265.267	-200.000	-0.001	0.146
-264.253	-13.631	0.193	-0.124
-263.238	178.345	-0.062	-0.091
-262.224	-90.537	0.159	0.046
-261.209	-200.000	0.019	-0.227
-260.195	800.000	0.081	0.279
-259.180	-55.352	-0.194	0.087
-258.165	-200.000	0.002	-0.035
-257.151	-39.698	0.146	-0.076
-256.136	-59.694	-0.312	-0.133
-255.122	11.788	0.070	0.054
-254.107	6.807	0.138	-0.103
-253.092	-56.733	-0.424	0.187
-252.078	81.004	0.237	-0.255
-251.063	-133.096	0.111	0.014
-250.049	3.328	-0.087	-0.063
-249.034	-79.532	-0.090	-0.030
-248.019	-133.193	-0.149	0.019
-247.005	-29.923	0.437	-0.248
-245.990	159.951	0.283	0.392
-244.976	32.101	-0.120	-0.103
-243.961	-144.655	-0.046	-0.004
-242.946	-56.610	0.128	0.057
-241.932	800.000	-0.041	-0.154
-240.917	800.000	0.101	0.303
-239.903	-147.383	-0.127	0.011
-238.888	-98.954	0.112	-0.028
-237.873	-8.683	-0.114	-0.076
-236.859	800.000	0.075	0.320
-235.844	800.000	0.100	-0.335
-234.830	366.641	0.034	0.069
-233.815	800.000	0.018	0.059
-232.800	-52.413	0.088	0.041
-231.786	114.842	-0.214	0.260
-230.771	-123.338	0.216	0.034
-229.757	3.222	0.319	0.231
-228.742	-32.252	-0.086	0.048
-227.727	-200.000	-0.030	0.341
-226.713	-73.238	-0.145	-0.053
-225.698	110.177	-0.170	-0.203
-224.684	-74.692	-0.232	-0.083
-223.669	-200.000	-0.017	0.264
-222.655	-200.000	0.030	-0.288
-221.640	800.000	-0.062	0.179
-220.625	-40.754	-0.284	0.146
-219.611	690.929	-0.093	-0.243
-218.596	800.000	-0.135	-0.408
-217.582	-3.568	0.080	-0.056
-216.567	535.196	-0.123	0.289
-215.552	-200.000	0.104	0.581
-214.538	56.926	-0.119	0.115
-213.523	530.848	0.179	-0.421
-212.509	158.053	-0.105	0.144
-211.494	-200.000	0.007	-0.251
-210.479	800.000	0.036	0.109
-209.465	-136.365	-0.305	-0.035
-208.450	35.531	0.225	-0.196
-207.436	420.534	0.073	0.155
-206.421	-78.319	-0.468	-0.160
-205.406	89.998	-0.091	-0.102
-204.392	598.917	0.073	0.180
-203.377	-111.711	0.244	0.049
-202.363	-200.000	0.005	0.222
-201.348	3.583	-0.307	0.222
-200.333	-27.534	0.218	0.126
-199.319	-200.000	0.000	0.060
-198.304	236.114	-0.079	0.131
-197.290	-40.350	0.177	0.092
-196.275	438.324	-0.188	0.407
-195.260	65.749	0.224	0.226
-194.246	99.869	0.091	-0.105
-193.231	-103.918	0.143	0.033
-192.217	-77.965	0.060	-0.021
-191.202	116.618	0.030	0.036
-190.187	-123.249	0.276	-0.044
-189.173	55.439	0.197	-0.190
-188.158	-32.632	-0.223	0.123
-187.144	281.545	-0.036	-0.065
-186.129	27.614	-0.087	0.072
-185.114	10.965	0.219	0.166
-184.100	20.165	-0.093	0.074
-183.085	110.310	0.162	-0.193
-182.071	-150.907	0.227	-0.017
-181.056	74.557	-0.153	0.160
-180.042	613.314	0.074	0.184
-179.027	-150.478	-0.138	-0.010
-178.012	-200.000	0.014	0.381
-176.998	141.433	-0.105	0.138
-175.983	78.303	-0.141	0.150
-174.969	44.006	0.124	-0.113
-173.954	-35.624	0.145	-0.078
-172.939	336.356	-0.112	0.215
-171.925	401.924	-0.089	0.185
-170.910	40.140	0.150	0.134
-169.896	173.475	-0.007	-0.009
-168.881	800.000	-0.055	0.160
-167.866	-200.000	-0.006	-0.026
-166.852	55.161	-0.132	0.127
-165.837	138.753	0.120	-0.156
-164.823	-25.004	0.235	-0.139
-163.808	800.000	-0.042	-0.115
-162.793	51.858	-0.110	0.104
-161.779	27.664	0.122	-0.102
-160.764	-25.511	0.222	0.130
-159.750	-200.000	-0.007	-0.104
-158.735	11.432	-0.123	-0.093
-157.720	-92.826	0.169	-0.047
-156.706	209.769	0.087	-0.135
-155.691	563.781	-0.090	-0.215
-154.677	800.000	-0.152	-0.484
-153.662	-75.519	0.455	-0.161
-152.647	176.246	0.144	-0.208
-151.633	-200.000	-0.008	0.155
-150.618	800.000	-0.098	-0.274
-149.604	-104.727	0.123	-0.028
-148.589	-52.458	-0.119	0.054
-147.574	521.872	-0.109	-0.255
-146.560	-114.973	-0.319	0.060
-145.545	-178.070	-0.298	0.007
-144.531	577.659	-0.103	-0.250
-143.516	393.263	0.120	0.249
-142.502	178.979	-0.156	0.226
-141.487	-200.000	-0.007	0.254
-140.472	-88.495	-0.094	0.028
-139.458	-200.000	-0.018	0.253
-138.443	-151.216	0.167	0.012
-137.429	-200.000	-0.026	0.211
-136.414	94.135	0.195	-0.219
-135.399	715.014	0.148	0.390
-134.385	800.000	-0.112	-0.407
-133.370	85.795	0.121	-0.132
-132.356	-92.881	-0.204	-0.057
-131.341	-109.082	-0.170	0.036
-130.326	100.742	0.270	0.311
-129.312	-200.000	-0.015	-0.184
-128.297	35.038	0.145	-0.126
-127.283	287.997	0.206	-0.370
-126.268	-136.977	0.097	0.011
-125.253	-137.110	-0.047	0.005
-124.239	220.381	0.096	-0.152
-123.224	-200.000	0.023	-0.235
-122.210	-200.000	0.045	-0.245
-121.195	-45.809	-0.350	0.172
