DTS Sentinel unit serial number:	SN413079Multiplexer serial number:	ORYXHardware model number:	OX4-SRSoftware version number:	ORYX F/W v4.00 Oryx Data Collector v3.7.2.0data status	okinstallation	princeton_trtdifferential loss correction	single-endedforward channel	channel 1reverse channel	N/Adate	2019/09/12time	01:08:11forward acquisition time	60.00reverse acquisition time	0.00gamma	496.2192k internal	0.2319k external	0.2319temperature offset calibration	1.0080default loss term (dB/km)	0.3790temperature slope calibration	1.0000multiplexer offset coefficient	1.0000multiplexer slope coefficient	1.0000fibre end	0.00T internal ref (°C)	33.06T ext. ref 1 (°C)	2.07T ext. ref 2 (°C)	27.51length (m)	temperature (°C)	Stokes	anti-Stokes-747.200	-127.035	-0.168	-0.025
-746.185	15.002	-0.149	0.118
-745.171	255.057	0.069	0.119
-744.156	88.632	-0.102	0.115
-743.142	-200.000	0.023	0.113
-742.127	-200.000	-0.032	-0.234
-741.112	-200.000	-0.008	-0.074
-740.098	298.350	0.255	0.475
-739.083	-122.911	-0.215	-0.035
-738.069	800.000	-0.095	0.319
-737.054	419.771	0.092	0.200
-736.039	108.776	-0.125	-0.151
-735.025	-105.541	0.060	0.014
-734.010	-103.572	-0.290	0.069
-732.996	-200.000	0.006	0.224
-731.981	191.999	-0.129	-0.196
-730.966	-100.898	0.270	-0.067
-729.952	381.744	-0.137	-0.284
-728.937	-200.000	-0.014	-0.250
-727.923	-71.240	0.088	-0.033
-726.908	-48.861	-0.462	-0.224
-725.894	-200.000	-0.012	-0.294
-724.879	-28.261	0.199	-0.116
-723.864	544.639	0.164	-0.395
-722.850	800.000	-0.040	0.145
-721.835	124.492	0.284	-0.361
-720.821	800.000	0.086	-0.301
-719.806	800.000	-0.065	-0.190
-718.791	231.289	0.170	-0.281
-717.777	800.000	0.069	-0.193
-716.762	800.000	0.069	-0.247
-715.748	-54.178	0.125	0.057
-714.733	-79.766	-0.336	-0.114
-713.718	325.629	0.094	-0.182
-712.704	285.295	0.172	-0.314
-711.689	681.373	-0.092	-0.242
-710.675	61.559	-0.059	-0.059
-709.660	-66.384	0.084	-0.034
-708.645	46.420	0.064	-0.060
-707.631	96.806	-0.156	-0.180
-706.616	46.631	0.226	0.212
-705.602	54.505	-0.125	0.122
-704.587	6.338	-0.056	0.042
-703.572	800.000	-0.066	-0.229
-702.558	5.126	-0.160	0.119
-701.543	8.893	-0.112	0.086
-700.529	-65.311	0.256	-0.104
-699.514	514.473	0.233	-0.548
-698.499	55.821	-0.166	0.162
-697.485	-83.693	0.274	-0.088
-696.470	36.148	-0.035	-0.031
-695.456	41.803	0.331	0.303
-694.441	597.268	-0.133	0.332
-693.426	-109.300	0.329	-0.070
-692.412	278.104	-0.091	0.163
-691.397	-44.448	0.131	0.066
-690.383	-38.020	0.104	-0.056
-689.368	-200.000	0.009	0.159
-688.354	-200.000	-0.018	-0.178
-687.339	74.395	0.103	0.109
-686.324	264.648	0.242	-0.426
-685.310	388.306	-0.122	0.255
-684.295	800.000	-0.078	0.265
-683.281	-60.015	-0.100	-0.043
-682.266	38.607	0.229	0.206
-681.251	-176.047	0.185	0.005
-680.237	800.000	-0.010	0.039
-679.222	-137.892	0.177	-0.020
-678.208	-143.360	0.194	0.019
-677.193	4.382	-0.284	-0.210
-676.178	-200.000	0.417	-0.001
-675.164	-117.613	-0.044	-0.008
-674.149	95.192	0.128	-0.147
-673.135	667.655	0.052	-0.136
-672.120	-49.811	0.056	-0.027
-671.105	-172.145	-0.357	0.012
-670.091	383.123	0.225	0.468
-669.076	-143.540	0.322	-0.031
-668.062	-29.481	-0.249	-0.144
-667.047	-121.324	-0.261	0.044
-666.032	-93.607	0.116	0.032
-665.018	248.015	-0.010	0.017
-664.003	-43.941	0.139	0.070
-662.989	116.541	0.169	-0.209
-661.974	113.196	-0.164	-0.201
-660.959	185.816	-0.040	0.060
-659.945	116.554	0.072	0.089
-658.930	-200.000	-0.051	0.448
-657.916	-158.280	-0.186	-0.011
-656.901	141.864	0.061	0.082
-655.886	-63.017	-0.019	0.008
-654.872	371.003	-0.078	-0.160
-653.857	-200.000	-0.003	-0.100
-652.843	-82.911	-0.338	0.110
-651.828	-113.487	0.116	-0.023
-650.814	78.410	-0.175	0.189
-649.799	106.195	-0.041	0.049
-648.784	-67.244	0.365	0.145
-647.770	28.540	-0.162	0.138
-646.755	-95.629	-0.233	0.063
-645.741	800.000	-0.012	-0.040
-644.726	-96.282	-0.129	0.034
-643.711	74.172	-0.142	0.150
-642.697	-45.838	0.141	-0.070
-641.682	281.398	0.080	0.144
-640.668	-9.837	0.330	-0.221
-639.653	-132.319	0.179	-0.023
-638.638	38.446	-0.163	0.147
-637.624	38.544	-0.052	-0.047
-636.609	308.140	0.128	0.242
-635.595	800.000	0.053	0.219
-634.580	-119.981	-0.123	-0.021
-633.565	-18.624	-0.062	-0.039
-632.551	463.296	0.178	-0.402
-631.536	387.924	-0.109	-0.228
-630.522	663.390	0.094	-0.245
-629.507	-181.135	-0.109	-0.002
-628.492	-55.256	-0.227	0.103
-627.478	-8.723	-0.073	0.049
-626.463	23.375	0.207	-0.171
-625.449	458.176	0.031	-0.070
-624.434	107.953	-0.199	-0.239
-623.419	-102.660	0.032	0.008
-622.405	-14.072	-0.097	-0.063
-621.390	58.033	0.162	-0.160
-620.376	23.174	0.157	0.129
-619.361	125.614	-0.070	-0.089
-618.346	-113.038	-0.301	-0.060
-617.332	76.824	-0.198	-0.211
-616.317	112.216	0.156	0.190
-615.303	-59.764	-0.183	0.079
-614.288	31.363	-0.232	-0.200
-613.273	190.479	0.035	0.053
-612.259	317.735	0.134	-0.255
-611.244	-107.170	0.102	0.023
-610.230	395.562	0.119	0.250
-609.215	36.112	0.302	0.268
-608.201	800.000	-0.107	0.406
-607.186	227.485	-0.225	-0.367
-606.171	373.825	-0.076	-0.156
-605.157	1.450	0.056	0.040
-604.142	800.000	-0.033	0.102
-603.128	256.474	-0.200	0.346
-602.113	-170.125	0.282	-0.010
-601.098	583.433	-0.032	-0.080
-600.084	-200.000	-0.028	-0.348
-599.069	-200.000	-0.019	-0.155
-598.055	-200.000	0.000	-0.206
-597.040	-4.798	0.040	-0.028
-596.025	252.735	0.130	-0.222
-595.011	288.401	-0.205	-0.372
-593.996	-52.462	-0.343	0.159
-592.982	-76.165	0.203	0.072
-591.967	8.127	-0.122	-0.092
-590.952	133.030	-0.042	-0.055
-589.938	-200.000	0.015	-0.320
-588.923	404.000	0.094	-0.199
-587.909	-130.347	-0.329	-0.045
-586.894	343.869	-0.208	-0.410
-585.879	800.000	-0.162	0.500
-584.865	-75.451	0.281	-0.101
-583.850	103.113	0.059	-0.069
-582.836	750.801	-0.045	-0.123
-581.821	-130.628	-0.404	0.055
-580.806	23.026	0.115	0.095
-579.792	107.334	0.219	-0.261
-578.777	40.278	-0.015	0.013
-577.763	800.000	-0.058	0.175
-576.748	-142.320	-0.036	-0.004
-575.733	-59.819	0.175	0.075
-574.719	-35.025	-0.145	0.079
-573.704	74.611	-0.233	0.247
-572.690	207.817	-0.170	-0.267
-571.675	163.138	-0.223	0.315
-570.661	-58.822	0.076	-0.033
-569.646	-151.824	-0.230	0.017
-568.631	133.965	0.132	0.172
-567.617	-77.713	-0.118	0.041
-566.602	-66.586	-0.268	0.107
-565.588	-93.695	0.141	-0.039
-564.573	76.466	0.227	-0.241
-563.558	-176.507	-0.171	-0.004
-562.544	-200.000	0.017	0.118
-561.529	80.596	0.129	-0.140
-560.515	-144.173	-0.063	-0.006
-559.500	-200.000	0.042	-0.192
-558.485	-69.756	0.336	-0.129
-557.471	-200.000	0.021	-0.188
-556.456	-45.550	-0.221	-0.110
-555.442	-200.000	0.124	-0.549
-554.427	-59.748	-0.229	-0.099
-553.412	86.420	-0.287	0.318
-552.398	270.429	0.027	0.047
-551.383	-90.554	-0.161	-0.047
-550.369	336.657	-0.237	-0.463
-549.354	103.566	-0.081	0.096
-548.339	-200.000	0.040	-0.320
-547.325	-200.000	0.017	0.164
-546.310	-90.129	-0.090	0.026
-545.296	605.151	-0.050	0.125
-544.281	-43.379	0.094	-0.048
-543.266	55.768	-0.092	-0.090
-542.252	43.003	0.243	0.223
-541.237	-104.762	0.096	0.022
-540.223	334.720	0.073	-0.142
-539.208	10.416	0.056	-0.043
-538.193	-87.405	0.300	-0.091
-537.179	123.433	0.151	-0.191
-536.164	-23.505	0.132	0.080
-535.150	-200.000	0.049	0.334
-534.135	-1.413	0.205	0.145
-533.121	-125.360	-0.102	-0.016
-532.106	-83.915	0.249	0.079
-531.091	63.981	-0.155	-0.156
-530.077	800.000	0.116	-0.376
-529.062	787.703	0.087	-0.240
-528.048	288.814	0.148	0.269
-527.033	19.681	0.238	-0.192
-526.018	45.862	-0.090	-0.084
-525.004	361.638	-0.099	-0.200
-523.989	-110.459	0.457	-0.095
-522.975	132.002	-0.122	0.158
-521.960	219.203	-0.029	-0.047
-520.945	207.573	-0.072	0.113
-519.931	127.442	0.270	0.344
-518.916	81.574	0.210	-0.227
-517.902	29.344	0.067	0.057
-516.887	800.000	0.092	0.260
-515.872	-43.259	-0.309	0.157
-514.858	800.000	-0.104	0.341
-513.843	165.354	0.054	0.077
-512.829	522.907	0.107	-0.251
-511.814	-72.320	-0.174	0.064
-510.799	624.617	0.105	-0.265
-509.785	30.514	-0.125	0.107
-508.770	47.148	-0.061	0.057
-507.756	34.677	-0.106	-0.093
-506.741	-59.845	-0.280	0.120
-505.726	-200.000	0.005	0.208
-504.712	400.120	0.106	-0.223
-503.697	-130.656	-0.118	-0.016
-502.683	406.640	-0.075	0.159
-501.668	131.949	-0.128	0.165
-500.653	-41.792	-0.179	-0.092
-499.639	-53.191	-0.201	0.092
-498.624	-200.000	0.008	0.224
-497.610	367.762	-0.060	0.122
-496.595	-160.086	0.310	-0.017
-495.581	-200.000	-0.009	0.048
-494.566	800.000	0.137	0.408
-493.551	168.257	-0.078	0.111
-492.537	313.875	0.176	-0.331
-491.522	-179.214	-0.554	0.012
-490.508	102.101	0.112	-0.131
-489.493	-11.928	0.186	0.122
-488.478	-3.036	0.279	-0.195
-487.464	800.000	0.042	-0.145
-486.449	33.290	0.050	-0.044
-485.435	-15.797	-0.092	-0.059
-484.420	346.881	0.085	-0.167
-483.405	21.700	0.093	-0.076
-482.391	59.861	-0.260	-0.257
-481.376	-10.576	-0.235	-0.156
-480.362	-200.000	0.007	-0.149
-479.347	-200.000	0.057	-0.313
-478.332	-166.924	0.212	-0.009
-477.318	767.815	-0.079	-0.215
-476.303	17.687	-0.136	-0.108
-475.289	-60.887	0.050	0.021
-474.274	129.331	-0.099	0.126
-473.259	-200.000	0.039	0.213
-472.245	169.801	-0.059	-0.085
-471.230	800.000	-0.035	0.110
-470.216	-124.414	-0.172	0.027
-469.201	31.959	-0.399	-0.344
-468.186	-159.380	0.266	0.015
-467.172	21.353	0.206	-0.167
-466.157	207.024	-0.023	-0.036
-465.143	186.540	-0.163	0.243
-464.128	96.489	0.137	-0.156
-463.113	800.000	0.055	0.194
-462.099	-81.216	0.366	-0.121
-461.084	-125.511	-0.293	0.045
-460.070	-49.236	0.208	0.099
-459.055	800.000	-0.119	-0.374
-458.040	-68.760	0.148	-0.057
-457.026	-132.283	-0.180	-0.023
-456.011	338.285	0.110	-0.215
-454.997	-200.000	0.037	0.316
-453.982	53.229	0.078	0.075
-452.968	-57.859	0.157	0.069
-451.953	342.328	0.087	0.170
-450.938	-169.598	-0.376	0.014
-449.924	-27.618	-0.160	0.093
-448.909	-71.200	-0.354	0.133
-447.895	-52.751	0.133	-0.061
-446.880	205.543	-0.123	-0.191
-445.865	-200.000	-0.023	0.209
-444.851	169.270	0.146	0.208
-443.836	751.130	-0.085	-0.229
-442.822	-76.485	0.086	-0.030
-441.807	-85.431	-0.385	0.120
-440.792	81.990	0.270	0.292
-439.778	536.305	0.034	0.080
-438.763	231.136	0.041	0.067
-437.749	-31.450	-0.060	-0.033
-436.734	-90.630	0.291	0.084
-435.719	113.481	0.105	-0.128
-434.705	78.455	-0.115	0.123
-433.690	-99.242	-0.236	-0.059
-432.676	53.622	0.279	0.267
-431.661	800.000	0.027	-0.104
-430.646	-26.132	0.090	0.053
-429.632	-125.700	0.119	0.018
-428.617	91.174	0.214	0.240
-427.603	-146.925	-0.192	0.016
-426.588	-135.716	-0.212	0.025
-425.573	-135.727	0.210	0.025
-424.559	246.943	-0.141	0.238
-423.544	-200.000	0.011	0.362
-422.530	-78.476	0.268	0.092
-421.515	-100.457	-0.309	-0.077
-420.500	-200.000	-0.021	0.131
-419.486	569.532	-0.051	-0.124
-418.471	595.202	-0.058	0.143
-417.457	-49.504	0.140	-0.067
-416.442	132.574	0.188	0.242
-415.428	92.053	-0.367	-0.413
-414.413	-10.994	0.333	0.219
-413.398	739.652	-0.106	0.285
-412.384	322.280	-0.082	-0.156
-411.369	21.926	0.157	-0.128
-410.355	-153.827	-0.408	0.028
-409.340	-200.000	0.039	0.256
-408.325	-152.654	0.234	0.017
-407.311	-176.526	-0.439	0.011
-406.296	89.512	0.137	-0.152
-405.282	800.000	-0.055	0.202
-404.267	53.492	-0.044	0.042
-403.252	-33.619	-0.061	0.033
-402.238	-200.000	-0.033	-0.154
-401.223	43.314	0.045	0.041
-400.209	552.372	0.116	0.278
-399.194	800.000	0.066	-0.193
-398.179	-179.645	-0.231	-0.005
-397.165	-29.020	-0.043	-0.024
-396.150	231.056	0.119	0.195
-395.136	-77.183	-0.009	-0.003
-394.121	291.539	-0.256	-0.464
-393.106	131.443	0.069	0.089
-392.092	-144.738	-0.286	-0.026
-391.077	194.611	0.076	0.115
-390.063	182.272	0.143	0.210
-389.048	800.000	-0.037	-0.107
-388.033	800.000	0.111	-0.318
-387.019	-200.000	-0.105	-0.478
-386.004	800.000	-0.108	0.436
-384.990	800.000	0.090	-0.254
-383.975	-174.584	-0.463	-0.013
-382.960	-78.798	-0.349	0.119
-381.946	105.813	-0.207	0.245
-380.931	126.947	0.180	-0.228
-379.917	-125.884	0.114	-0.017
-378.902	-40.792	0.041	0.021
-377.888	189.135	0.118	0.176
-376.873	800.000	-0.045	-0.166
-375.858	204.505	0.221	0.341
-374.844	-200.000	-0.003	0.021
-373.829	800.000	-0.058	-0.175
-372.815	365.395	0.077	-0.154
-371.800	-81.415	-0.212	-0.070
-370.785	76.835	0.064	0.067
-369.771	31.464	-0.286	-0.245
-368.756	450.622	0.004	0.009
-367.742	97.594	-0.247	0.283
-366.727	301.363	0.155	0.286
-365.712	179.729	-0.088	-0.129
-364.698	-200.000	0.021	-0.109
-363.683	176.028	-0.101	0.147
-362.669	-3.903	-0.190	0.131
-361.654	-79.998	0.304	-0.102
-360.639	672.171	-0.085	-0.219
-359.625	-109.297	-0.093	-0.020
-358.610	-33.503	0.160	0.088
-357.596	-200.000	-0.013	-0.084
-356.581	-57.549	0.195	0.085
-355.566	-121.456	0.154	0.026
-354.552	-79.584	0.325	-0.109
-353.537	260.140	0.152	-0.262
-352.523	-25.378	0.272	-0.160
-351.508	-106.574	0.243	-0.054
-350.493	67.464	-0.190	0.193
-349.479	560.301	-0.089	0.214
-348.464	-139.459	-0.061	-0.006
-347.450	-71.163	0.277	0.104
-346.435	45.958	-0.264	0.243
-345.420	-200.000	0.004	-0.191
-344.406	30.951	-0.175	-0.149
-343.391	-103.524	0.089	-0.021
-342.377	800.000	-0.050	0.176
-341.362	-200.000	-0.077	-0.375
-340.348	-47.780	0.224	0.108
-339.333	-200.000	-0.045	0.226
-338.318	-183.850	0.513	0.009
-337.304	545.544	0.105	-0.250
-336.289	-160.769	-0.039	-0.002
-335.275	-200.000	0.019	-0.126
-334.260	-37.630	-0.262	0.139
-333.245	-79.636	0.132	0.044
-332.231	-19.386	-0.258	-0.159
-331.216	800.000	0.025	-0.095
-330.202	159.612	-0.158	-0.219
-329.187	-200.000	-0.030	-0.273
-328.172	-52.966	0.306	0.140
-327.158	-200.000	-0.039	-0.183
-326.143	-200.000	-0.008	-0.117
-325.129	-45.898	0.357	0.176
-324.114	800.000	0.093	0.302
-323.099	-133.977	-0.060	-0.007
-322.085	-200.000	0.011	0.377
-321.070	-126.531	-0.283	0.042
-320.056	-167.316	-0.249	0.010
-319.041	-67.087	0.473	0.185
-318.026	375.732	0.039	0.080
-317.012	-200.000	-0.006	0.166
-315.997	-61.739	-0.137	-0.057
-314.983	-98.918	-0.291	-0.073
-313.968	-129.926	-0.183	-0.025
-312.953	51.486	0.151	0.143
-311.939	800.000	0.033	0.127
-310.924	-24.358	-0.395	-0.234
-309.910	-9.023	-0.168	-0.112
-308.895	160.095	-0.150	0.208
-307.880	-200.000	0.045	0.422
-306.866	1.820	0.101	-0.073
-305.851	93.961	0.146	0.165
-304.837	243.608	-0.119	-0.198
-303.822	-195.734	-0.058	-0.000
-302.807	-44.711	0.096	0.048
-301.793	-139.261	-0.378	-0.040
-300.778	450.881	0.109	0.240
-299.764	60.339	0.204	-0.201
-298.749	-200.000	0.005	-0.072
-297.735	-34.714	-0.119	0.065
-296.720	-14.062	-0.210	0.135
-295.705	-4.447	0.320	-0.220
-294.691	-71.664	0.359	0.133
-293.676	146.362	0.168	-0.225
-292.662	37.532	0.158	-0.140
-291.647	800.000	0.086	-0.342
-290.632	800.000	-0.048	-0.136
-289.618	-200.000	0.001	0.501
-288.603	-75.862	0.081	0.028
-287.589	-200.000	0.044	-0.274
-286.574	-56.886	0.086	0.038
-285.559	-96.870	0.113	-0.029
-284.545	-200.000	-0.010	-0.399
-283.530	419.329	-0.088	0.187
-282.516	-167.877	0.166	-0.006
-281.501	800.000	-0.033	-0.102
-280.486	-163.867	-0.185	-0.009
-279.472	-200.000	-0.014	0.096
-278.457	318.505	0.022	0.041
-277.443	-109.590	-0.151	-0.032
-276.428	-101.674	-0.133	-0.032
-275.413	99.310	-0.143	0.164
-274.399	-140.752	0.033	-0.003
-273.384	46.514	0.293	0.270
-272.370	-10.723	0.159	0.104
-271.355	800.000	0.136	-0.467
-270.340	-76.812	-0.083	0.029
-269.326	800.000	-0.078	0.290
-268.311	-86.294	-0.194	-0.059
-267.297	-150.005	0.298	0.023
-266.282	-59.881	0.092	-0.039
-265.267	514.785	-0.048	-0.112
-264.253	-200.000	-0.023	0.132
-263.238	91.138	0.181	0.201
-262.224	-46.740	0.247	0.120
-261.209	83.658	0.120	0.130
-260.195	-100.520	-0.221	0.054
-259.180	202.827	-0.094	0.144
-258.165	628.790	0.047	-0.119
-257.151	-119.656	0.015	0.003
-256.136	373.711	-0.087	-0.176
-255.122	-156.415	0.131	-0.008
-254.107	-99.627	-0.187	-0.047
-253.092	-116.140	-0.144	-0.027
-252.078	84.456	0.159	-0.172
-251.063	-46.666	-0.315	-0.153
-250.049	493.770	-0.092	0.209
-249.034	800.000	-0.070	0.236
-248.019	97.128	-0.017	0.019
-247.005	-200.000	-0.013	0.469
-245.990	64.028	-0.167	0.166
-244.976	-200.000	0.012	-0.213
-243.961	373.401	-0.138	-0.279
-242.946	25.310	0.236	0.195
-241.932	13.382	-0.324	-0.249
-240.917	137.176	-0.163	0.211
-239.903	-79.389	0.074	0.025
-238.888	-164.053	-0.046	0.002
-237.873	800.000	0.089	-0.271
-236.859	228.276	0.200	-0.322
-235.844	-72.295	-0.151	0.056
-234.830	800.000	0.044	0.141
-233.815	-128.907	-0.079	-0.011
-232.800	-176.370	-0.059	0.002
-231.786	225.791	-0.021	0.034
-230.771	-99.589	0.115	-0.029
-229.757	92.664	0.172	0.193
-228.742	-65.074	-0.187	-0.075
-227.727	-200.000	-0.012	0.240
-226.713	80.320	-0.194	0.207
-225.698	-171.449	0.347	0.011
-224.684	-5.836	0.278	0.189
-223.669	-102.512	-0.097	0.023
-222.655	800.000	-0.064	0.194
-221.640	730.229	0.076	-0.202
-220.625	-74.238	0.163	0.058
-219.611	243.254	0.039	0.066
-218.596	31.355	0.227	-0.193
-217.582	109.106	0.113	-0.134
-216.567	-200.000	0.026	0.321
-215.552	497.946	-0.093	0.211
-214.538	419.309	-0.177	0.376
-213.523	-20.317	0.097	0.059
-212.509	177.584	0.118	0.170
-211.494	800.000	-0.062	-0.265
-210.479	744.465	-0.060	-0.159
-209.465	-14.197	-0.087	-0.056
-208.450	-200.000	0.056	0.293
-207.436	-200.000	-0.022	0.317
-206.421	221.346	0.089	-0.142
-205.406	576.952	-0.078	0.189
-204.392	28.711	0.132	0.111
-203.377	-200.000	-0.028	0.225
-202.363	105.206	0.177	-0.207
-201.348	-33.648	0.155	0.085
-200.333	534.424	0.122	0.286
-199.319	800.000	-0.078	-0.299
-198.304	-73.104	0.594	-0.216
-197.290	-200.000	-0.022	0.345
-196.275	-200.000	-0.036	0.378
-195.260	-133.251	-0.090	0.011
-194.246	-200.000	-0.020	-0.143
-193.231	-140.661	0.249	-0.025
-192.217	170.346	0.170	-0.240
-191.202	90.255	0.093	0.103
-190.187	-200.000	-0.009	-0.376
-189.173	480.915	0.071	-0.160
-188.158	-69.432	0.108	0.041
-187.144	186.455	-0.121	0.179
-186.129	-200.000	-0.030	0.430
-185.114	-200.000	-0.044	0.260
-184.100	800.000	-0.010	0.031
-183.085	800.000	0.106	0.317
-182.071	-200.000	0.040	-0.192
-181.056	38.917	-0.153	-0.136
-180.042	800.000	-0.050	0.136
-179.027	-200.000	0.059	0.297
-178.012	-49.330	-0.463	0.219
-176.998	9.944	0.145	-0.109
-175.983	176.761	0.138	-0.199
-174.969	73.605	-0.202	0.210
-173.954	-52.889	-0.317	-0.144
-172.939	180.298	0.325	-0.472
-171.925	-126.397	-0.122	-0.018
-170.910	-130.248	0.210	-0.028
-169.896	46.482	-0.089	0.082
-168.881	-148.237	0.393	0.032
-167.866	370.376	-0.118	-0.236
-166.852	31.166	0.298	-0.253
-165.837	-101.468	-0.298	-0.072
-164.823	-136.764	-0.117	0.013
-163.808	36.115	0.104	-0.090
-162.793	255.431	0.203	-0.344
-161.779	60.538	-0.042	-0.042
-160.764	-200.000	-0.026	-0.296
-159.750	239.238	-0.147	0.241
-158.735	-93.495	-0.294	0.080
-157.720	-200.000	0.008	-0.127
-156.706	-200.000	-0.049	-0.360
-155.691	800.000	0.047	-0.172
-154.677	-124.992	-0.188	-0.029
-153.662	800.000	0.103	0.363
-152.647	-122.449	0.482	-0.078
-151.633	800.000	-0.031	-0.123
-150.618	83.067	-0.023	0.024
-149.604	-31.866	-0.158	0.088
-148.589	800.000	0.036	-0.115
-147.574	-200.000	-0.045	-0.272
-146.560	-200.000	0.281	-0.000
-145.545	-200.000	0.002	-0.072
-144.531	-200.000	-0.023	0.174
-143.516	-139.731	0.385	-0.040
-142.502	-3.279	0.084	-0.058
-141.487	98.683	-0.125	0.142
-140.472	-200.000	-0.063	-0.335
-139.458	201.185	-0.084	-0.128
-138.443	299.161	-0.052	-0.095
-137.429	800.000	0.086	0.296
-136.414	-107.919	0.342	-0.074
-135.399	38.120	-0.117	0.103
-134.385	800.000	0.078	0.281
-133.370	-102.369	0.267	-0.063
-132.356	503.610	-0.031	-0.072
-131.341	-26.635	-0.371	-0.215
-130.326	93.853	-0.209	0.234
-129.312	-56.926	-0.169	-0.074
-128.297	75.311	-0.139	-0.145
-127.283	-200.000	0.003	0.278
-126.268	-46.501	0.280	-0.136
-125.253	-10.050	0.043	-0.028
-124.239	-42.486	0.141	0.071
-123.224	35.594	-0.133	-0.115
-122.210	225.513	-0.144	-0.230
-121.195	65.956	-0.133	-0.133
