DTS Sentinel unit serial number:	SN413079Multiplexer serial number:	ORYXHardware model number:	OX4-SRSoftware version number:	ORYX F/W v4.00 Oryx Data Collector v3.7.2.0data status	okinstallation	princeton_trtdifferential loss correction	single-endedforward channel	channel 1reverse channel	N/Adate	2019/09/13time	21:50:36forward acquisition time	60.00reverse acquisition time	0.00gamma	496.2192k internal	0.2331k external	0.2331temperature offset calibration	1.0084default loss term (dB/km)	0.3790temperature slope calibration	1.0000multiplexer offset coefficient	1.0000multiplexer slope coefficient	1.0000fibre end	0.00T internal ref (°C)	28.06T ext. ref 1 (°C)	3.14T ext. ref 2 (°C)	22.64length (m)	temperature (°C)	Stokes	anti-Stokes-747.200	-65.988	0.109	0.044
-746.185	-200.000	-0.010	0.293
-745.171	800.000	0.057	0.232
-744.156	502.619	0.171	0.397
-743.142	233.136	-0.189	0.313
-742.127	163.903	-0.147	0.208
-741.112	-49.172	0.103	0.049
-740.098	-200.000	0.002	0.079
-739.083	86.654	-0.138	-0.153
-738.069	-200.000	0.040	0.176
-737.054	146.228	-0.134	-0.180
-736.039	-153.218	-0.214	0.015
-735.025	4.407	0.048	0.035
-734.010	-115.424	-0.169	-0.032
-732.996	253.685	0.069	-0.119
-731.981	-131.477	0.259	0.034
-730.966	252.549	-0.106	-0.182
-729.952	1.885	0.204	-0.148
-728.937	-141.659	-0.087	-0.009
-727.923	177.241	0.054	-0.078
-726.908	-61.541	-0.098	-0.041
-725.894	-193.146	0.438	0.004
-724.879	137.533	0.090	0.119
-723.864	-138.620	-0.164	-0.018
-722.850	-197.700	-0.105	-0.001
-721.835	97.393	0.072	-0.084
-720.821	800.000	0.006	0.018
-719.806	137.961	-0.201	-0.265
-718.791	437.626	0.081	0.178
-717.777	-76.590	-0.176	0.062
-716.762	-67.801	-0.105	0.041
-715.748	20.093	-0.169	-0.137
-714.733	72.785	-0.171	-0.180
-713.718	30.589	0.146	-0.125
-712.704	225.750	0.090	0.147
-711.689	-200.000	-0.037	0.180
-710.675	-1.550	-0.101	0.071
-709.660	84.012	-0.223	0.245
-708.645	35.569	0.076	-0.067
-707.631	-200.000	0.031	0.143
-706.616	-47.626	-0.303	0.148
-705.602	-4.837	0.225	0.156
-704.587	-106.179	-0.021	0.005
-703.572	34.689	0.147	-0.129
-702.558	-200.000	-0.011	0.071
-701.543	345.283	-0.130	-0.257
-700.529	87.731	0.246	0.274
-699.514	77.928	-0.089	0.096
-698.499	-90.495	-0.195	0.057
-697.485	-200.000	0.031	0.268
-696.470	2.554	-0.228	0.166
-695.456	-98.371	0.095	0.024
-694.441	169.020	-0.225	0.322
-693.426	78.622	0.141	0.151
-692.412	-39.979	0.167	0.087
-691.397	-178.706	-0.082	-0.002
-690.383	61.200	-0.222	0.221
-689.368	365.585	-0.122	0.247
-688.354	4.599	-0.206	0.152
-687.339	800.000	-0.021	-0.063
-686.324	22.248	-0.082	0.068
-685.310	26.704	0.058	-0.048
-684.295	123.135	-0.207	-0.260
-683.281	107.199	0.167	-0.199
-682.266	181.080	0.117	-0.173
-681.251	699.795	0.051	-0.134
-680.237	-194.664	-0.364	-0.003
-679.222	-28.402	-0.151	-0.087
-678.208	-116.950	-0.403	0.074
-677.193	154.408	-0.033	-0.046
-676.178	293.125	0.134	0.245
-675.164	-79.588	-0.152	-0.051
-674.149	16.985	-0.126	-0.100
-673.135	-42.023	-0.291	0.150
-672.120	800.000	0.021	-0.066
-671.105	800.000	-0.062	-0.171
-670.091	59.712	0.154	-0.152
-669.076	800.000	0.020	-0.074
-668.062	-29.556	0.217	0.125
-667.047	-65.825	0.265	-0.106
-666.032	-70.254	-0.137	0.052
-665.018	-65.655	0.064	0.026
-664.003	-50.815	-0.095	0.045
-662.989	-165.370	0.195	-0.009
-661.974	-33.501	0.295	0.164
-660.959	-200.000	-0.002	-0.075
-659.945	-118.843	-0.217	-0.038
-658.930	138.671	-0.044	0.058
-657.916	699.914	0.048	0.126
-656.901	-18.062	-0.179	0.112
-655.886	-43.703	0.092	0.047
-654.872	800.000	0.011	0.032
-653.857	-130.830	-0.149	0.020
-652.843	800.000	0.049	0.195
-651.828	800.000	0.045	0.132
-650.814	-200.000	0.025	0.218
-649.799	-200.000	-0.043	-0.204
-648.784	21.432	-0.180	-0.147
-647.770	800.000	-0.011	0.032
-646.755	13.646	-0.151	-0.117
-645.741	-200.000	-0.096	0.431
-644.726	-113.708	0.307	-0.060
-643.711	344.396	-0.054	0.106
-642.697	-153.860	0.346	-0.024
-641.682	-200.000	-0.076	-0.400
-640.668	157.268	-0.032	-0.045
-639.653	113.513	-0.209	0.254
-638.638	800.000	0.055	0.222
-637.624	22.589	-0.213	-0.175
-636.609	-89.571	-0.002	-0.001
-635.595	368.570	0.172	0.349
-634.580	-157.051	-0.240	-0.015
-633.565	-41.900	-0.117	-0.060
-632.551	557.526	0.102	-0.246
-631.536	-148.655	-0.245	-0.020
-630.522	587.947	0.082	-0.203
-629.507	-96.000	-0.226	0.060
-628.492	-164.718	0.195	0.009
-627.478	297.950	-0.112	-0.207
-626.463	800.000	-0.155	-0.539
-625.449	-90.724	0.083	-0.024
-624.434	135.611	-0.097	0.127
-623.419	-125.782	0.587	-0.089
-622.405	-68.780	-0.137	0.053
-621.390	-115.040	0.203	-0.039
-620.376	-29.943	0.257	-0.147
-619.361	-200.000	0.026	-0.135
-618.346	296.987	-0.182	0.334
-617.332	-37.457	-0.125	0.067
-616.317	-51.933	-0.173	-0.081
-615.303	800.000	-0.046	0.157
-614.288	56.270	0.142	0.138
-613.273	30.138	-0.022	-0.019
-612.259	226.850	-0.122	0.198
-611.244	-66.288	-0.253	0.101
-610.230	-200.000	-0.008	-0.270
-609.215	-102.077	-0.156	-0.038
-608.201	-200.000	0.031	0.266
-607.186	82.564	-0.105	0.114
-606.171	-200.000	-0.017	0.217
-605.157	-200.000	-0.045	0.257
-604.142	-87.901	-0.268	-0.081
-603.128	634.316	0.072	-0.182
-602.113	106.282	-0.215	0.255
-601.098	217.242	0.143	-0.228
-600.084	447.018	-0.248	0.546
-599.069	800.000	-0.042	0.134
-598.055	-175.832	0.137	-0.004
-597.040	18.043	0.150	0.120
-596.025	103.358	-0.126	0.147
-595.011	25.866	0.256	0.213
-593.996	97.143	-0.311	-0.357
-592.982	-70.736	-0.218	-0.082
-591.967	-200.000	-0.016	-0.236
-590.952	63.202	0.230	-0.231
-589.938	135.231	0.136	0.177
-588.923	90.307	0.254	0.284
-587.909	150.817	-0.128	-0.174
-586.894	608.172	-0.107	-0.268
-585.879	-75.277	-0.185	0.066
-584.865	-200.000	0.000	-0.251
-583.850	28.053	0.117	0.099
-582.836	75.900	-0.285	-0.301
-581.821	800.000	0.017	0.055
-580.806	800.000	0.112	-0.392
-579.792	38.858	-0.248	-0.222
-578.777	47.853	-0.107	0.100
-577.763	34.464	-0.174	-0.152
-576.748	800.000	0.083	0.245
-575.733	-62.280	0.123	-0.051
-574.719	44.799	0.141	-0.130
-573.704	-200.000	0.017	-0.132
-572.690	800.000	0.108	-0.328
-571.675	-200.000	-0.033	-0.194
-570.661	18.543	0.257	-0.206
-569.646	-136.063	0.207	-0.024
-568.631	-50.774	-0.386	0.182
-567.617	2.307	0.030	0.022
-566.602	-200.000	-0.001	0.061
-565.588	-1.771	-0.236	0.166
-564.573	-45.575	0.125	-0.062
-563.558	-177.794	0.399	-0.010
-562.544	570.861	-0.028	-0.067
-561.529	800.000	-0.078	-0.245
-560.515	610.767	0.042	0.105
-559.500	-36.712	-0.087	-0.046
-558.485	528.420	0.038	-0.088
-557.471	-200.000	-0.036	-0.241
-556.456	-200.000	-0.012	-0.145
-555.442	-200.000	0.019	0.151
-554.427	800.000	-0.105	0.418
-553.412	-107.277	0.134	0.029
-552.398	-172.680	0.172	-0.005
-551.383	-24.696	-0.225	0.134
-550.369	-88.290	0.133	0.040
-549.354	344.913	-0.201	-0.395
-548.339	168.699	0.184	-0.262
-547.325	-40.236	-0.492	-0.256
-546.310	3.169	-0.288	-0.209
-545.296	97.705	0.139	0.160
-544.281	273.773	-0.003	-0.006
-543.266	800.000	-0.072	-0.202
-542.252	-19.959	0.277	-0.171
-541.237	508.325	0.045	-0.104
-540.223	14.393	0.112	-0.087
-539.208	-42.995	-0.239	-0.121
-538.193	-74.322	0.199	0.072
-537.179	704.367	-0.048	0.126
-536.164	540.202	0.090	-0.214
-535.150	-27.405	-0.066	0.039
-534.135	642.254	-0.062	0.158
-533.121	127.112	0.082	-0.103
-532.106	-77.672	-0.080	0.028
-531.091	22.783	0.318	0.260
-530.077	53.734	-0.141	0.135
-529.062	316.339	-0.031	-0.059
-528.048	800.000	-0.133	-0.368
-527.033	446.156	-0.053	0.116
-526.018	-200.000	-0.002	0.069
-525.004	-80.529	0.142	-0.047
-523.989	-8.297	-0.361	-0.243
-522.975	159.411	0.212	0.294
-521.960	126.041	-0.066	0.083
-520.945	96.845	0.177	0.203
-519.931	-4.252	0.114	0.079
-518.916	-101.064	-0.146	-0.036
-517.902	19.342	0.173	0.139
-516.887	-200.000	0.034	0.174
-515.872	-165.903	0.213	-0.009
-514.858	-8.524	-0.146	-0.098
-513.843	118.811	-0.051	0.062
-512.829	272.472	-0.089	-0.157
-511.814	-200.000	0.088	0.654
-510.799	14.477	-0.323	0.251
-509.785	112.632	-0.140	0.169
-508.770	75.148	0.052	0.055
-507.756	-200.000	0.005	0.077
-506.741	-146.000	0.560	-0.049
-505.726	-91.875	-0.156	-0.044
-504.712	64.531	0.345	-0.347
-503.697	-25.736	0.253	0.148
-502.683	35.202	0.234	-0.204
-501.668	-83.888	0.244	0.077
-500.653	34.436	0.254	-0.221
-499.639	-45.800	-0.187	0.092
-498.624	-50.755	-0.175	-0.082
-497.610	800.000	0.044	0.133
-496.595	-97.034	0.173	0.045
-495.581	-58.492	-0.094	0.041
-494.566	140.116	0.120	-0.158
-493.551	-66.185	0.110	0.044
-492.537	-83.611	-0.162	-0.051
-491.522	178.188	-0.148	-0.215
-490.508	130.623	0.032	-0.041
-489.493	63.769	-0.147	-0.147
-488.478	74.386	0.042	-0.044
-487.464	-85.367	-0.353	0.110
-486.449	-200.000	0.016	-0.185
-485.435	44.336	0.175	0.160
-484.420	23.844	0.112	-0.092
-483.405	75.086	-0.179	-0.188
-482.391	-71.945	0.208	0.077
-481.376	172.512	-0.056	0.080
-480.362	19.528	-0.072	-0.058
-479.347	-200.000	0.004	0.233
-478.332	-200.000	-0.051	-0.358
-477.318	558.441	0.132	-0.317
-476.303	800.000	0.045	-0.131
-475.289	46.960	0.110	0.102
-474.274	-105.443	-0.310	0.070
-473.259	133.254	-0.141	0.181
-472.245	50.441	0.232	-0.219
-471.230	-40.710	-0.118	-0.061
-470.216	-200.000	0.023	0.216
-469.201	-24.358	-0.088	0.052
-468.186	779.901	0.070	0.191
-467.172	-200.000	0.000	-0.050
-466.157	188.773	-0.067	0.099
-465.143	694.741	0.025	-0.065
-464.128	15.686	0.104	0.081
-463.113	354.645	-0.180	0.356
-462.099	38.401	-0.189	0.168
-461.084	64.241	-0.176	0.176
-460.070	-70.835	0.010	0.004
-459.055	-187.854	-0.236	0.003
-458.040	-53.150	-0.301	0.137
-457.026	-200.000	0.030	-0.200
-456.011	174.633	-0.200	-0.288
-454.997	-135.618	0.066	0.008
-453.982	-12.412	-0.040	0.026
-452.968	800.000	0.115	0.457
-451.953	-200.000	-0.034	0.197
-450.938	800.000	-0.067	-0.250
-449.924	-29.571	-0.114	-0.065
-448.909	-121.060	-0.180	0.030
-447.895	-2.478	-0.219	0.153
-446.880	-200.000	0.033	-0.243
-445.865	-22.008	0.234	0.141
-444.851	-123.359	-0.178	-0.028
-443.836	-197.594	0.090	-0.001
-442.822	-53.905	0.154	-0.070
-441.807	261.750	0.081	0.140
-440.792	-110.379	-0.156	0.032
-439.778	-186.529	-0.091	-0.001
-438.763	44.099	0.057	0.052
-437.749	-200.000	0.021	0.093
-436.734	-81.941	-0.317	-0.103
-435.719	-20.958	-0.330	0.201
-434.705	800.000	0.089	0.297
-433.690	800.000	-0.045	0.128
-432.676	-61.273	0.231	0.097
-431.661	-65.991	-0.066	0.026
-430.646	148.994	-0.055	0.074
-429.632	159.906	0.040	0.055
-428.617	293.096	0.148	-0.269
-427.603	-79.936	0.236	-0.079
-426.588	-179.605	-0.169	0.004
-425.573	-200.000	-0.012	0.163
-424.559	363.503	-0.064	0.129
-423.544	-63.163	0.068	0.028
-422.530	414.169	-0.109	-0.230
-421.515	800.000	0.077	-0.220
-420.500	52.416	-0.157	0.149
-419.486	392.960	-0.154	-0.319
-418.471	42.290	-0.121	-0.109
-417.457	800.000	0.060	-0.227
-416.442	352.784	-0.145	0.286
-415.428	-200.000	-0.036	-0.258
-414.413	127.943	-0.103	0.130
-413.398	22.376	0.074	0.060
-412.384	47.920	-0.144	-0.134
-411.369	48.505	0.211	-0.196
-410.355	800.000	0.041	-0.143
-409.340	-96.637	0.145	0.038
-408.325	141.306	-0.035	-0.047
-407.311	-53.018	-0.196	-0.089
-406.296	79.332	0.057	-0.060
-405.282	303.373	-0.057	0.104
-404.267	-60.775	0.253	-0.107
-403.252	204.206	0.218	-0.335
-402.238	409.756	0.100	-0.211
-401.223	-108.839	0.249	-0.053
-400.209	79.537	0.175	0.187
-399.194	-200.000	-0.023	0.105
-398.179	-68.673	0.203	0.078
-397.165	470.204	0.095	-0.212
-396.150	-96.641	-0.142	0.037
-395.136	-200.000	-0.013	0.273
-394.121	376.723	-0.032	0.065
-393.106	800.000	-0.041	-0.156
-392.092	56.380	-0.194	-0.187
-391.077	-72.185	0.123	-0.045
-390.063	-94.711	-0.129	-0.035
-389.048	800.000	0.026	-0.110
-388.033	-163.996	-0.279	0.013
-387.019	57.212	0.103	0.100
-386.004	-101.040	-0.344	-0.084
-384.990	-200.000	0.019	0.163
-383.975	1.096	-0.114	-0.081
-382.960	337.960	0.146	0.281
-381.946	-200.000	0.007	0.215
-380.931	-200.000	0.037	0.182
-379.917	660.881	0.050	0.128
-378.902	533.596	-0.045	-0.105
-377.888	-77.127	0.157	0.054
-376.873	42.534	-0.209	-0.188
-375.858	-12.391	0.086	-0.056
-374.844	-91.705	-0.375	-0.106
-373.829	59.933	0.316	-0.309
-372.815	90.383	-0.336	0.373
-371.800	462.008	-0.198	0.437
-370.785	501.663	-0.053	0.122
-369.771	437.520	0.095	0.206
-368.756	-72.802	-0.119	-0.044
-367.742	18.071	-0.125	0.099
-366.727	-148.405	-0.132	0.011
-365.712	509.570	-0.041	0.095
-364.698	-78.881	0.162	0.055
-363.683	-1.163	0.184	-0.129
-362.669	52.536	0.030	-0.028
-361.654	-41.161	0.165	0.084
-360.639	91.545	0.123	-0.137
-359.625	-200.000	0.060	-0.351
-358.610	134.601	-0.168	-0.216
-357.596	189.918	0.079	0.117
-356.581	-60.927	-0.109	-0.046
-355.566	-13.817	0.194	-0.124
-354.552	-84.522	0.117	0.037
-353.537	7.659	0.145	0.108
-352.523	-58.072	-0.123	0.053
-351.508	-120.247	-0.145	0.024
-350.493	-200.000	0.015	-0.156
-349.479	567.658	0.053	0.127
-348.464	87.656	-0.061	0.066
-347.450	61.048	-0.142	0.140
-346.435	-200.000	-0.001	-0.021
-345.420	-154.497	-0.140	0.009
-344.406	452.158	-0.096	-0.210
-343.391	-200.000	0.047	-0.218
-342.377	-55.559	0.116	0.051
-341.362	800.000	-0.051	0.212
-340.348	-115.023	0.189	0.036
-339.333	-62.591	-0.238	0.098
-338.318	66.105	0.095	-0.095
-337.304	-46.529	-0.336	0.163
-336.289	800.000	0.081	0.319
-335.275	104.044	-0.085	0.099
-334.260	-200.000	0.028	-0.427
-333.245	-30.816	-0.057	-0.032
-332.231	760.636	-0.069	0.184
-331.216	-200.000	-0.013	0.185
-330.202	-105.414	0.238	0.054
-329.187	-119.626	0.208	-0.036
-328.172	43.068	0.085	-0.077
-327.158	49.163	-0.174	0.162
-326.143	407.265	0.056	0.117
-325.129	-200.000	-0.060	0.370
-324.114	246.195	0.057	0.095
-323.099	136.293	0.072	0.092
-322.085	-142.627	0.243	0.024
-321.070	-8.131	0.277	-0.185
-320.056	800.000	-0.069	0.226
-319.041	-147.605	0.201	0.017
-318.026	-60.564	0.084	-0.035
-317.012	-61.453	-0.154	-0.064
-315.997	-200.000	-0.043	0.423
-314.983	-148.915	-0.105	-0.008
-313.968	-170.992	0.025	-0.001
-312.953	-90.146	0.231	-0.067
-311.939	-130.679	0.320	0.043
-310.924	-119.444	0.230	0.039
-309.910	-138.463	-0.186	-0.020
-308.895	3.557	0.127	-0.092
-307.880	-200.000	0.009	0.361
-306.866	-70.602	-0.081	0.030
-305.851	340.760	0.089	-0.172
-304.837	-185.624	0.344	0.005
-303.822	-200.000	-0.146	0.001
-302.807	800.000	0.075	-0.226
-301.793	-40.441	0.232	-0.119
-300.778	41.204	-0.061	0.055
-299.764	800.000	-0.107	0.338
-298.749	-131.536	0.156	0.020
-297.735	132.040	-0.094	0.120
-296.720	-147.348	0.251	0.021
-295.705	-52.897	0.199	0.091
-294.691	320.053	-0.079	0.148
-293.676	-14.516	0.117	-0.075
-292.662	329.547	-0.141	-0.268
-291.647	272.211	0.107	0.187
-290.632	-28.403	-0.279	-0.159
-289.618	-54.380	-0.163	-0.073
-288.603	800.000	-0.045	0.182
-287.589	-30.291	-0.123	-0.069
-286.574	-45.053	-0.182	0.090
-285.559	-141.127	-0.053	-0.005
-284.545	0.217	0.104	0.073
-283.530	800.000	0.128	0.351
-282.516	-200.000	-0.004	-0.233
-281.501	282.016	0.057	-0.101
-280.486	-186.811	0.480	0.007
-279.472	-86.050	-0.216	-0.066
-278.457	-28.329	0.227	0.130
-277.443	-153.836	0.121	0.008
-276.428	177.335	-0.177	-0.255
-275.413	-200.000	0.020	-0.096
-274.399	12.224	-0.324	0.246
-273.384	144.871	0.062	0.082
-272.370	-200.000	-0.017	0.152
-271.355	-50.390	-0.231	-0.108
-270.340	-24.249	0.144	-0.085
-269.326	-174.011	-0.094	0.003
-268.311	-64.135	-0.096	0.039
-267.297	-14.478	0.033	-0.021
-266.282	298.816	0.055	-0.100
-265.267	615.641	0.082	0.203
-264.253	-76.026	-0.084	-0.029
-263.238	-116.006	0.158	0.029
-262.224	-98.008	-0.191	0.049
-261.209	185.714	-0.295	0.433
-260.195	-30.939	0.276	0.154
-259.180	34.339	-0.369	0.318
-258.165	10.142	0.301	-0.226
-257.151	-33.614	0.099	0.054
-256.136	74.806	0.121	0.126
-255.122	97.541	-0.250	-0.284
-254.107	15.190	0.275	-0.213
-253.092	212.450	-0.092	-0.144
-252.078	-200.000	-0.007	-0.053
-251.063	-200.000	0.006	-0.139
-250.049	800.000	0.079	-0.285
-249.034	-79.281	0.195	0.065
-248.019	-121.799	0.298	0.049
-247.005	-200.000	0.004	0.161
-245.990	-200.000	0.017	-0.281
-244.976	41.415	-0.345	-0.308
-243.961	7.720	0.171	0.126
-242.946	800.000	-0.114	-0.319
-241.932	-200.000	-0.014	-0.258
-240.917	94.994	-0.077	-0.087
-239.903	-176.582	0.150	0.004
-238.888	-113.683	-0.194	0.037
-237.873	143.606	-0.260	-0.342
-236.859	-200.000	0.063	-0.308
-235.844	-117.995	-0.213	0.038
-234.830	-200.000	-0.046	-0.453
-233.815	-0.310	0.142	-0.099
-232.800	556.842	-0.067	-0.159
-231.786	306.006	-0.249	-0.457
-230.771	-200.000	-0.020	0.124
-229.757	-125.416	0.140	-0.021
-228.742	668.906	0.118	-0.301
-227.727	-33.184	0.136	0.074
-226.713	246.811	-0.055	0.091
-225.698	-78.546	0.308	0.104
-224.684	800.000	-0.030	0.128
-223.669	-200.000	0.066	-0.334
-222.655	-200.000	0.021	0.157
-221.640	125.367	0.232	0.289
-220.625	-63.588	0.106	0.043
-219.611	-79.271	0.279	-0.093
-218.596	14.298	-0.385	0.296
-217.582	-24.343	-0.203	0.119
-216.567	-47.902	-0.183	-0.087
-215.552	-112.067	-0.124	-0.025
-214.538	197.518	-0.101	-0.152
-213.523	-200.000	0.043	0.195
-212.509	292.028	0.087	0.157
-211.494	-39.886	0.067	-0.034
-210.479	-49.540	-0.131	0.062
-209.465	295.641	-0.086	0.155
-208.450	800.000	-0.133	0.372
-207.436	526.016	0.097	0.225
-206.421	-94.724	0.342	0.092
-205.406	-177.373	0.334	0.008
-204.392	-62.729	0.347	0.142
-203.377	-134.489	-0.147	-0.018
-202.363	138.780	0.346	0.448
-201.348	442.502	0.049	0.107
-200.333	272.478	0.272	0.472
-199.319	107.383	-0.205	0.240
-198.304	-26.469	-0.187	-0.108
-197.290	296.722	-0.048	-0.087
-196.275	579.707	0.071	0.172
-195.260	-63.178	-0.210	0.085
-194.246	-200.000	-0.014	0.199
-193.231	-176.575	0.301	-0.008
-192.217	800.000	0.032	-0.106
-191.202	208.881	0.115	-0.177
-190.187	-139.372	0.213	-0.023
-189.173	-107.500	-0.230	0.050
-188.158	262.344	-0.011	0.018
-187.144	-123.880	0.136	-0.021
-186.129	43.236	0.064	-0.058
-185.114	190.914	-0.122	-0.180
-184.100	-200.000	-0.033	-0.177
-183.085	330.586	-0.122	-0.232
-182.071	800.000	-0.104	-0.284
-181.056	-33.206	0.229	0.125
-180.042	123.504	0.148	-0.183
-179.027	52.102	-0.126	0.118
-178.012	-87.704	0.155	-0.046
-176.998	800.000	0.016	-0.056
-175.983	-60.016	-0.154	0.065
-174.969	-157.337	-0.081	-0.005
-173.954	-200.000	0.006	-0.085
-172.939	-14.017	-0.212	0.134
-171.925	-25.123	0.323	-0.189
-170.910	800.000	0.035	-0.097
-169.896	158.441	0.087	-0.119
-168.881	26.711	0.034	-0.028
-167.866	135.742	-0.060	-0.077
-166.852	759.481	0.054	0.145
-165.837	-200.000	0.051	0.343
-164.823	800.000	0.084	-0.254
-163.808	95.751	0.063	0.070
-162.793	-66.662	0.276	0.107
-161.779	56.094	0.122	0.116
-160.764	77.465	-0.146	-0.153
-159.750	-11.363	-0.091	-0.059
-158.735	800.000	-0.083	-0.256
-157.720	-124.062	0.078	-0.012
-156.706	-19.003	-0.136	0.083
-155.691	13.793	-0.086	0.066
-154.677	75.190	-0.106	0.110
-153.662	33.174	-0.070	-0.060
-152.647	184.818	-0.155	-0.225
-151.633	-77.510	0.248	0.085
-150.618	-200.000	-0.004	-0.331
-149.604	153.424	0.141	0.190
-148.589	-35.219	-0.019	0.010
-147.574	800.000	-0.065	0.193
-146.560	-200.000	-0.005	0.065
-145.545	-100.651	0.294	-0.071
-144.531	105.134	-0.105	0.122
-143.516	-96.996	-0.191	0.049
-142.502	170.253	0.044	-0.063
-141.487	-48.380	0.207	-0.098
-140.472	-200.000	0.014	0.191
-139.458	-200.000	-0.015	0.256
-138.443	168.570	-0.244	-0.341
-137.429	-194.766	0.498	-0.004
-136.414	280.555	0.074	0.131
-135.399	-62.927	-0.324	-0.132
-134.385	599.533	0.067	-0.165
-133.370	800.000	0.029	0.111
-132.356	216.757	-0.091	-0.142
-131.341	85.024	-0.089	-0.096
-130.326	800.000	-0.064	-0.235
-129.312	192.176	-0.169	-0.250
-128.297	226.165	-0.011	-0.018
-127.283	-52.646	-0.078	-0.036
-126.268	248.024	0.192	0.318
-125.253	-86.959	-0.355	-0.106
-124.239	320.111	-0.172	-0.320
-123.224	609.442	0.065	-0.160
-122.210	-200.000	0.052	0.313
-121.195	34.176	-0.120	0.103
-120.180	-200.000	-0.011	0.213
