DTS Sentinel unit serial number:	SN413079Multiplexer serial number:	ORYXHardware model number:	OX4-SRSoftware version number:	ORYX F/W v4.00 Oryx Data Collector v3.7.2.0data status	okinstallation	princeton_trtdifferential loss correction	single-endedforward channel	channel 1reverse channel	N/Adate	2019/09/17time	10:34:35forward acquisition time	60.00reverse acquisition time	0.00gamma	496.2192k internal	0.2323k external	0.2323temperature offset calibration	0.9962default loss term (dB/km)	0.3790temperature slope calibration	1.0000multiplexer offset coefficient	1.0000multiplexer slope coefficient	1.0000fibre end	0.00T internal ref (°C)	30.02T ext. ref 1 (°C)	0.17T ext. ref 2 (°C)	25.62length (m)	temperature (°C)	Stokes	anti-Stokes-747.200	205.808	0.202	0.317
-746.185	136.160	-0.153	0.201
-745.171	75.096	0.285	-0.303
-744.156	209.816	0.095	0.150
-743.142	203.176	-0.146	-0.229
-742.127	493.890	-0.033	-0.076
-741.112	117.677	-0.064	0.079
-740.098	19.417	-0.151	0.123
-739.083	-64.347	-0.137	-0.056
-738.069	126.433	0.193	0.247
-737.054	-105.303	-0.038	-0.009
-736.039	35.484	-0.054	-0.048
-735.025	-53.159	0.314	-0.146
-734.010	724.418	-0.119	-0.320
-732.996	800.000	0.057	-0.250
-731.981	-14.756	-0.053	-0.034
-730.966	-93.372	-0.231	0.065
-729.952	-200.000	-0.037	-0.238
-728.937	-200.000	-0.014	0.107
-727.923	2.060	-0.091	0.066
-726.908	1.608	0.078	0.056
-725.894	-200.000	0.024	0.122
-724.879	607.990	-0.083	-0.209
-723.864	-143.178	-0.681	-0.066
-722.850	187.100	0.048	0.072
-721.835	-73.615	-0.227	0.084
-720.821	59.148	-0.258	0.257
-719.806	128.445	-0.094	-0.121
-718.791	-200.000	-0.025	-0.255
-717.777	10.521	-0.021	-0.016
-716.762	-200.000	-0.001	0.227
-715.748	800.000	0.052	-0.149
-714.733	640.149	-0.084	-0.215
-713.718	114.506	-0.248	-0.305
-712.704	-138.791	0.234	0.026
-711.689	155.047	-0.142	-0.198
-710.675	177.586	-0.108	-0.159
-709.660	120.845	-0.154	0.193
-708.645	-120.443	-0.401	-0.069
-707.631	46.512	0.132	-0.124
-706.616	12.218	-0.097	0.075
-705.602	-200.000	0.038	0.316
-704.587	-52.083	-0.264	-0.123
-703.572	22.501	0.111	0.092
-702.558	-94.809	-0.035	0.010
-701.543	-200.000	0.014	0.085
-700.529	62.745	0.056	0.057
-699.514	368.604	0.065	-0.132
-698.499	-200.000	0.031	-0.234
-697.485	-74.190	-0.577	-0.210
-696.470	111.227	-0.178	-0.216
-695.456	800.000	0.103	0.313
-694.441	-114.489	-0.036	-0.007
-693.426	-148.917	0.335	0.027
-692.412	9.683	-0.029	0.023
-691.397	-153.101	-0.177	0.013
-690.383	85.721	-0.180	0.200
-689.368	-93.209	-0.094	-0.026
-688.354	27.110	0.205	0.173
-687.339	800.000	0.064	-0.268
-686.324	-74.522	-0.114	0.041
-685.310	-38.442	0.270	-0.144
-684.295	224.178	-0.044	0.072
-683.281	-200.000	-0.014	-0.105
-682.266	-94.048	-0.237	0.066
-681.251	-47.762	-0.160	-0.078
-680.237	-200.000	-0.040	-0.254
-679.222	14.149	-0.279	-0.219
-678.208	36.558	-0.100	0.089
-677.193	110.189	-0.230	-0.279
-676.178	282.701	0.192	-0.347
-675.164	358.957	0.090	-0.181
-674.149	782.037	0.059	0.164
-673.135	-6.356	-0.230	0.158
-672.120	-50.646	0.369	0.175
-671.105	-107.347	-0.234	0.052
-670.091	11.022	-0.106	0.081
-669.076	762.870	-0.044	-0.120
-668.062	-82.759	-0.171	0.056
-667.047	-41.151	0.310	-0.161
-666.032	-70.760	-0.062	0.024
-665.018	710.316	-0.234	-0.622
-664.003	23.250	-0.238	-0.197
-662.989	-42.401	0.061	-0.032
-661.974	-47.270	0.152	-0.075
-660.959	-200.000	0.013	0.096
-659.945	-200.000	-0.003	-0.118
-658.930	252.562	0.043	-0.075
-657.916	-158.464	-0.108	-0.006
-656.901	-200.000	0.039	0.201
-655.886	28.322	-0.168	0.142
-654.872	-127.140	-0.190	-0.028
-653.857	-9.363	-0.226	0.152
-652.843	255.119	-0.055	-0.095
-651.828	800.000	-0.012	-0.039
-650.814	345.385	0.136	0.268
-649.799	-200.000	-0.011	-0.062
-648.784	481.871	-0.030	0.068
-647.770	105.398	-0.095	0.113
-646.755	-153.628	-0.361	-0.025
-645.741	314.945	-0.149	0.282
-644.726	536.107	-0.019	0.046
-643.711	-65.948	-0.127	0.051
-642.697	-22.353	0.142	-0.086
-641.682	-129.621	0.060	-0.008
-640.668	-147.776	-0.290	0.024
-639.653	800.000	0.022	0.080
-638.638	-87.861	-0.080	-0.024
-637.624	-200.000	-0.010	-0.146
-636.609	177.620	-0.315	-0.462
-635.595	-25.208	0.223	0.133
-634.580	-200.000	0.005	-0.167
-633.565	800.000	-0.127	-0.472
-632.551	-132.949	0.139	0.018
-631.536	67.797	-0.208	0.214
-630.522	317.464	0.051	-0.098
-629.507	101.327	-0.078	0.092
-628.492	407.928	0.129	-0.275
-627.478	-138.291	0.164	0.018
-626.463	-10.944	-0.123	0.082
-625.449	-200.000	0.014	0.072
-624.434	8.652	-0.138	-0.104
-623.419	800.000	0.131	-0.427
-622.405	63.535	0.145	0.147
-621.390	800.000	-0.092	0.259
-620.376	-148.108	0.349	-0.029
-619.361	-200.000	0.056	0.309
-618.346	-1.767	-0.290	0.205
-617.332	800.000	-0.074	0.238
-616.317	-200.000	0.030	-0.227
-615.303	551.948	0.051	0.122
-614.288	32.571	0.098	-0.085
-613.273	611.191	-0.056	-0.140
-612.259	80.968	-0.064	0.069
-611.244	690.185	0.015	-0.039
-610.230	67.243	-0.212	0.218
-609.215	-111.340	0.254	-0.052
-608.201	-74.684	0.120	0.043
-607.186	-62.854	-0.022	-0.009
-606.171	167.212	0.119	-0.170
-605.157	-27.816	-0.271	0.158
-604.142	-69.879	0.191	0.073
-603.128	-142.057	0.145	0.014
-602.113	-85.820	-0.058	0.018
-601.098	800.000	0.040	-0.137
-600.084	-28.301	-0.119	0.069
-599.069	-41.566	-0.051	-0.026
-598.055	-130.622	0.330	0.045
-597.040	-200.000	0.025	0.211
-596.025	192.687	-0.096	0.146
-595.011	15.816	0.067	-0.053
-593.996	-106.567	-0.246	-0.055
-592.982	258.803	-0.123	-0.213
-591.967	-133.331	0.296	0.037
-590.952	-88.122	-0.180	-0.054
-589.938	-143.858	-0.225	0.021
-588.923	390.984	-0.255	0.531
-587.909	4.579	-0.210	0.155
-586.894	-21.836	-0.215	-0.132
-585.879	-200.000	0.014	-0.154
-584.865	-134.101	0.200	-0.025
-583.850	-127.595	0.061	0.009
-582.836	-37.818	-0.035	0.019
-581.821	-4.575	0.179	0.124
-580.806	-200.000	0.061	0.449
-579.792	-77.495	0.159	0.055
-578.777	44.324	-0.164	0.151
-577.763	531.364	0.111	-0.264
-576.748	-6.892	0.328	-0.223
-575.733	-106.951	-0.295	0.066
-574.719	-100.279	-0.443	-0.110
-573.704	-12.443	0.175	0.115
-572.690	-200.000	-0.013	0.624
-571.675	395.870	0.201	0.421
-570.661	338.963	-0.240	0.470
-569.646	-3.333	0.024	0.017
-568.631	-132.076	0.071	0.009
-567.617	-112.660	-0.408	-0.081
-566.602	-27.891	0.126	-0.073
-565.588	-45.419	0.463	0.230
-564.573	651.085	-0.118	0.304
-563.558	-16.583	-0.207	-0.132
-562.544	175.644	0.373	0.543
-561.529	253.918	-0.185	-0.317
-560.515	39.525	0.286	-0.257
-559.500	206.467	0.093	-0.145
-558.485	-49.385	-0.106	-0.051
-557.471	-140.792	0.199	0.021
-556.456	2.112	-0.218	-0.158
-555.442	16.158	0.087	0.069
-554.427	135.375	0.067	0.087
-553.412	61.829	0.142	0.142
-552.398	18.145	0.185	-0.148
-551.383	800.000	-0.018	0.066
-550.369	670.236	0.154	0.401
-549.354	-41.806	0.226	-0.116
-548.339	-60.501	0.067	0.029
-547.325	-43.289	-0.335	-0.170
-546.310	800.000	-0.071	0.211
-545.296	151.393	-0.003	-0.004
-544.281	19.436	0.271	0.219
-543.266	-78.894	-0.373	0.127
-542.252	261.882	-0.095	0.165
-541.237	756.090	-0.141	-0.382
-540.223	597.833	-0.014	0.036
-539.208	-200.000	-0.036	0.255
-538.193	-200.000	0.330	-0.001
-537.179	-200.000	0.036	-0.208
-536.164	140.444	-0.154	0.204
-535.150	530.746	0.092	0.217
-534.135	-49.623	-0.233	0.111
-533.121	-200.000	0.012	0.183
-532.106	-69.871	0.222	-0.085
-531.091	238.149	-0.225	-0.374
-530.077	-200.000	-0.073	0.335
-529.062	-200.000	0.024	0.360
-528.048	68.403	0.100	-0.103
-527.033	-200.000	0.019	-0.175
-526.018	-200.000	-0.024	-0.419
-525.004	800.000	-0.139	0.403
-523.989	-20.197	-0.124	-0.077
-522.975	11.710	-0.131	-0.101
-521.960	-200.000	-0.006	0.246
-520.945	286.641	-0.196	0.354
-519.931	334.271	-0.062	-0.119
-518.916	-130.152	-0.134	-0.018
-517.902	-42.209	0.327	-0.167
-516.887	14.331	0.263	-0.206
-515.872	-132.414	0.320	-0.041
-514.858	24.251	-0.091	-0.075
-513.843	-200.000	-0.011	-0.093
-512.829	800.000	0.046	-0.156
-511.814	-39.178	0.194	0.102
-510.799	42.391	0.106	0.097
-509.785	-7.681	0.122	0.083
-508.770	-173.168	-0.201	-0.006
-507.756	-200.000	-0.006	-0.322
-506.741	96.286	0.152	-0.174
-505.726	414.815	0.186	0.397
-504.712	-17.537	0.288	0.181
-503.697	800.000	-0.034	0.137
-502.683	-35.616	-0.140	0.076
-501.668	800.000	-0.122	0.442
-500.653	800.000	-0.046	-0.196
-499.639	25.397	0.188	-0.156
-498.624	-200.000	0.003	-0.176
-497.610	38.748	-0.162	-0.145
-496.595	-22.948	-0.054	0.032
-495.581	-200.000	-0.019	-0.293
-494.566	-26.989	0.103	0.060
-493.551	800.000	0.077	-0.282
-492.537	-109.092	0.422	-0.090
-491.522	-173.819	-0.192	-0.006
-490.508	-14.407	0.403	-0.259
-489.493	24.338	-0.106	-0.088
-488.478	800.000	-0.075	0.236
-487.464	-147.733	0.298	-0.025
-486.449	462.953	-0.119	0.267
-485.435	489.006	0.106	-0.242
-484.420	248.760	0.212	0.359
-483.405	-71.741	-0.259	-0.096
-482.391	-200.000	-0.045	0.253
-481.376	800.000	-0.036	0.108
-480.362	81.142	-0.141	0.152
-479.347	14.597	0.163	-0.127
-478.332	-200.000	0.011	0.193
-477.318	-73.340	-0.332	-0.121
-476.303	-172.054	0.361	-0.012
-475.289	-169.506	-0.294	-0.011
-474.274	109.101	-0.175	0.210
-473.259	29.268	0.091	0.077
-472.245	800.000	-0.012	-0.035
-471.230	325.038	0.091	0.175
-470.216	-200.000	0.001	0.155
-469.201	125.227	0.150	-0.188
-468.186	303.239	0.081	-0.149
-467.172	501.511	0.133	0.306
-466.157	77.892	0.024	0.026
-465.143	-200.000	0.016	-0.213
-464.128	596.366	0.142	0.351
-463.113	111.218	-0.067	0.081
-462.099	121.567	0.205	0.255
-461.084	-21.130	0.181	-0.111
-460.070	-29.463	0.366	0.209
-459.055	22.177	-0.293	0.239
-458.040	224.022	-0.023	-0.038
-457.026	-87.503	0.183	-0.055
-456.011	77.825	-0.061	-0.065
-454.997	226.568	-0.056	-0.091
-453.982	132.728	0.135	-0.174
-452.968	151.266	-0.077	-0.104
-451.953	800.000	0.074	0.274
-450.938	209.499	-0.190	0.297
-449.924	-200.000	-0.057	-0.319
-448.909	-33.548	-0.204	-0.112
-447.895	800.000	0.020	-0.080
-446.880	180.417	0.057	0.084
-445.865	-200.000	-0.052	-0.247
-444.851	74.545	0.020	-0.021
-443.836	88.663	-0.257	-0.286
-442.822	364.429	0.077	-0.155
-441.807	-200.000	-0.012	-0.099
-440.792	800.000	0.049	0.208
-439.778	292.710	-0.171	-0.311
-438.763	-97.881	0.320	-0.082
-437.749	316.105	0.102	0.193
-436.734	-200.000	-0.020	-0.213
-435.719	399.262	-0.033	-0.069
-434.705	44.433	0.169	-0.155
-433.690	800.000	0.074	-0.266
-432.676	-200.000	-0.048	-0.505
-431.661	-170.689	0.441	0.015
-430.646	-138.469	-0.377	0.041
-429.632	204.344	-0.013	0.021
-428.617	68.407	-0.094	0.096
-427.603	-104.087	-0.202	-0.047
-426.588	800.000	0.115	-0.353
-425.573	599.682	0.087	-0.216
-424.559	-33.930	0.150	-0.082
-423.544	-200.000	-0.044	0.264
-422.530	639.409	0.074	0.187
-421.515	-200.000	0.027	-0.130
-420.500	90.782	0.177	0.198
-419.486	-9.042	-0.171	0.114
-418.471	-114.247	0.179	-0.034
-417.457	-200.000	0.028	-0.206
-416.442	-16.971	0.165	-0.104
-415.428	-149.837	0.069	-0.005
-414.413	303.291	0.021	0.038
-413.398	369.626	0.063	-0.127
-412.384	-65.110	0.275	0.111
-411.369	-81.367	0.119	0.039
-410.355	769.717	0.030	-0.082
-409.340	-200.000	0.026	-0.236
-408.325	800.000	0.022	0.089
-407.311	-97.535	-0.329	0.085
-406.296	-143.168	0.223	-0.021
-405.282	492.554	-0.033	-0.075
-404.267	800.000	-0.087	-0.379
-403.252	-3.368	-0.274	-0.190
-402.238	77.184	0.221	0.234
-401.223	-200.000	0.008	0.046
-400.209	800.000	0.040	0.149
-399.194	-100.838	0.031	0.007
-398.179	74.513	-0.242	-0.254
-397.165	-200.000	0.013	-0.173
-396.150	198.485	-0.054	0.082
-395.136	-1.332	-0.150	0.105
-394.121	-105.372	0.055	-0.012
-393.106	791.905	0.130	0.356
-392.092	-164.618	0.185	-0.008
-391.077	222.034	0.111	0.177
-390.063	111.424	-0.120	0.144
-389.048	21.341	-0.073	-0.059
-388.033	-64.566	0.147	0.059
-387.019	-46.302	0.093	0.045
-386.004	215.531	-0.042	-0.067
-384.990	-116.062	-0.366	-0.068
-383.975	589.217	-0.178	0.436
-382.960	-200.000	-0.013	-0.293
-381.946	337.903	0.121	0.234
-380.931	-65.249	-0.177	-0.071
-379.917	275.966	0.129	0.228
-378.902	40.414	-0.167	0.150
-377.888	-200.000	0.054	-0.247
-376.873	-74.234	-0.253	0.091
-375.858	34.597	-0.183	-0.159
-374.844	800.000	0.095	0.311
-373.829	-200.000	-0.022	-0.150
-372.815	109.789	-0.269	-0.321
-371.800	800.000	-0.050	0.171
-370.785	-61.372	-0.251	-0.105
-369.771	-67.760	-0.129	-0.050
-368.756	164.769	-0.174	-0.245
-367.742	-163.852	0.352	-0.016
-366.727	351.458	0.065	-0.129
-365.712	410.719	0.044	0.093
-364.698	-71.562	-0.078	0.029
-363.683	-78.117	0.243	-0.083
-362.669	-200.000	0.017	-0.186
-361.654	1.382	0.212	-0.151
-360.639	-95.856	0.255	0.068
-359.625	800.000	-0.098	0.278
-358.610	-10.097	-0.266	-0.176
-357.596	68.329	0.124	0.127
-356.581	96.157	0.095	0.108
-355.566	204.632	0.125	-0.193
-354.552	738.676	0.065	-0.175
-353.537	94.205	-0.149	0.168
-352.523	-86.566	-0.130	-0.040
-351.508	78.800	-0.187	-0.199
-350.493	-124.955	0.250	-0.038
-349.479	-200.000	0.013	-0.387
-348.464	-58.781	-0.126	-0.054
-347.450	-200.000	-0.014	0.232
-346.435	141.338	0.131	0.173
-345.420	-70.144	0.144	-0.055
-344.406	800.000	0.020	0.065
-343.391	-200.000	0.026	-0.144
-342.377	71.067	0.149	0.154
-341.362	392.329	-0.059	-0.121
-340.348	-200.000	-0.008	0.074
-339.333	800.000	0.048	0.168
-338.318	10.143	-0.206	-0.156
-337.304	175.701	0.226	-0.325
-336.289	-185.887	0.206	-0.003
-335.275	57.133	0.087	0.084
-334.260	-75.330	-0.361	0.128
-333.245	-53.086	-0.153	-0.070
-332.231	800.000	-0.042	0.133
-331.216	47.754	-0.185	-0.172
-330.202	-200.000	-0.051	0.272
-329.187	68.060	0.264	0.268
-328.172	4.123	0.332	0.241
-327.158	-18.508	0.250	0.155
-326.143	14.809	0.133	0.104
-325.129	557.142	0.155	0.371
-324.114	-55.671	0.129	-0.058
-323.099	-165.079	0.029	0.001
-322.085	-200.000	0.057	0.324
-321.070	300.763	0.119	0.218
-320.056	374.282	-0.140	-0.282
-319.041	800.000	-0.105	-0.334
-318.026	-24.475	-0.064	-0.038
-317.012	-72.692	-0.207	0.076
-315.997	-11.542	-0.224	0.147
-314.983	89.428	0.173	-0.191
-313.968	-25.392	-0.139	-0.082
-312.953	-1.610	-0.197	-0.138
-311.939	-72.985	0.144	0.053
-310.924	123.965	-0.081	-0.101
-309.910	180.615	0.022	-0.032
-308.895	-8.955	0.122	0.081
-307.880	-76.983	-0.145	0.050
-306.866	3.762	0.152	0.110
-305.851	60.307	0.111	-0.109
-304.837	-72.579	-0.283	0.104
-303.822	719.736	-0.056	0.147
-302.807	-25.449	-0.391	-0.230
-301.793	10.153	0.093	-0.070
-300.778	139.561	-0.028	0.037
-299.764	48.017	0.120	-0.111
-298.749	-200.000	0.054	0.396
-297.735	-125.599	-0.167	0.025
-296.720	-127.961	0.513	0.073
-295.705	285.909	-0.042	-0.074
-294.691	800.000	0.146	0.459
-293.676	115.757	-0.073	0.089
-292.662	12.492	-0.131	0.101
-291.647	-141.935	0.116	-0.012
-290.632	-19.547	-0.100	0.062
-289.618	-95.461	-0.161	-0.043
-288.603	-49.563	-0.184	0.087
-287.589	-101.515	0.358	-0.086
-286.574	73.285	-0.177	0.184
-285.559	-93.619	0.172	-0.047
-284.545	800.000	0.020	-0.056
-283.530	28.734	-0.072	-0.060
-282.516	-136.371	-0.111	-0.013
-281.501	-146.092	-0.254	-0.022
-280.486	464.633	0.136	0.301
-279.472	-170.069	-0.179	-0.006
-278.457	-47.827	-0.287	-0.138
-277.443	31.708	0.384	0.328
-276.428	206.669	-0.212	0.327
-275.413	-164.283	-0.350	0.016
-274.399	417.158	0.036	-0.076
-273.384	800.000	0.064	0.267
-272.370	-138.448	0.081	-0.009
-271.355	-34.205	0.115	0.063
-270.340	108.053	-0.144	0.170
-269.326	-200.000	-0.022	0.145
-268.311	7.315	-0.113	-0.084
-267.297	-73.713	-0.224	-0.081
-266.282	86.439	-0.229	-0.250
-265.267	62.184	0.152	0.151
-264.253	-200.000	-0.034	-0.243
-263.238	-12.223	-0.106	0.069
-262.224	-74.436	-0.116	0.041
-261.209	102.789	-0.131	0.152
-260.195	-91.760	-0.076	-0.021
-259.180	30.142	-0.332	0.281
-258.165	-76.463	-0.212	-0.074
-257.151	-200.000	0.081	-0.374
-256.136	-137.363	-0.192	-0.022
-255.122	-200.000	0.045	-0.268
-254.107	230.758	0.100	-0.161
-253.092	23.742	0.093	-0.076
-252.078	90.844	0.147	0.163
-251.063	-115.234	-0.059	0.011
-250.049	189.859	0.153	0.227
-249.034	-81.900	-0.170	-0.055
-248.019	-68.155	-0.180	0.069
-247.005	-25.938	-0.172	-0.100
-245.990	123.611	0.240	0.298
-244.976	146.252	0.110	0.147
-243.961	4.689	-0.112	-0.082
-242.946	242.273	-0.070	0.115
-241.932	50.695	-0.288	-0.270
-240.917	-200.000	-0.007	0.227
-239.903	800.000	0.079	0.267
-238.888	-52.635	0.097	0.044
-237.873	92.701	0.321	0.358
-236.859	683.194	-0.060	0.156
-235.844	438.273	0.148	-0.320
-234.830	141.469	0.048	0.063
-233.815	172.461	-0.193	-0.274
-232.800	263.272	-0.170	-0.292
-231.786	141.347	-0.056	0.073
-230.771	493.872	0.191	0.434
-229.757	380.913	-0.102	-0.207
-228.742	-114.942	-0.359	-0.068
-227.727	-200.000	-0.004	-0.164
-226.713	393.032	0.143	0.294
-225.698	-88.265	-0.247	0.073
-224.684	92.775	-0.156	0.174
-223.669	-133.801	-0.145	0.018
-222.655	270.864	-0.036	-0.063
-221.640	-200.000	-0.008	0.036
-220.625	-41.016	0.166	-0.085
-219.611	254.526	-0.219	-0.371
-218.596	162.671	-0.040	-0.056
-217.582	42.686	-0.045	-0.041
-216.567	67.015	0.143	-0.145
-215.552	-52.972	0.184	0.084
-214.538	-79.419	-0.284	-0.095
-213.523	300.031	-0.084	-0.153
-212.509	-172.509	0.401	-0.013
-211.494	-65.663	0.250	-0.099
-210.479	-145.707	0.256	-0.023
-209.465	661.555	-0.023	-0.059
-208.450	23.556	-0.030	-0.024
-207.436	153.406	0.026	-0.036
-206.421	88.822	0.223	-0.246
-205.406	-65.986	-0.145	0.057
-204.392	-200.000	0.084	-0.390
-203.377	-37.679	0.261	0.137
-202.363	81.113	-0.161	-0.172
-201.348	-23.682	0.065	-0.038
-200.333	-200.000	-0.005	0.185
-199.319	-200.000	-0.002	-0.196
-198.304	-22.692	0.216	0.129
-197.290	240.548	-0.070	-0.116
-196.275	303.136	-0.223	-0.408
-195.260	269.017	0.019	-0.034
-194.246	-41.720	0.320	-0.162
-193.231	-14.749	0.183	-0.116
-192.217	332.901	0.185	0.353
-191.202	350.056	-0.193	-0.377
-190.187	355.699	-0.040	-0.079
-189.173	800.000	0.046	-0.144
-188.158	-88.370	0.125	0.037
-187.144	-82.088	-0.071	-0.023
-186.129	-144.550	0.098	0.009
-185.114	-94.648	-0.116	0.031
-184.100	117.598	-0.053	-0.065
-183.085	-81.493	-0.381	-0.124
-182.071	152.668	-0.229	-0.309
-181.056	800.000	-0.058	-0.213
-180.042	-80.625	0.237	0.078
-179.027	-200.000	0.055	-0.260
-178.012	-123.805	0.442	0.069
-176.998	800.000	-0.067	-0.286
-175.983	72.953	0.370	0.382
-174.969	571.410	-0.122	-0.293
-173.954	-200.000	0.005	0.184
-172.939	-39.764	-0.151	-0.078
-171.925	-19.828	-0.135	0.082
-170.910	-200.000	-0.026	-0.135
-169.896	258.567	-0.170	-0.290
-168.881	589.454	-0.019	0.047
-167.866	-105.205	0.203	-0.046
-166.852	-43.740	-0.405	-0.201
-165.837	192.868	0.138	-0.206
-164.823	57.083	0.188	-0.181
-163.808	-18.089	-0.421	-0.260
-162.793	800.000	0.066	0.255
-161.779	46.624	0.036	0.033
-160.764	800.000	-0.161	-0.654
-159.750	-15.405	-0.110	0.070
-158.735	131.910	0.130	-0.165
-157.720	-91.179	0.137	-0.039
-156.706	-93.138	0.182	-0.050
-155.691	-200.000	-0.023	-0.273
-154.677	-125.531	0.081	0.012
-153.662	-200.000	-0.022	-0.138
-152.647	-20.085	-0.231	0.141
-151.633	-200.000	0.035	0.242
-150.618	-200.000	-0.017	-0.154
-149.604	712.144	-0.068	0.178
-148.589	-77.173	0.226	-0.078
-147.574	290.755	-0.075	-0.135
-146.560	-40.261	-0.045	-0.023
-145.545	90.111	-0.299	-0.330
-144.531	-122.537	-0.045	-0.007
-143.516	800.000	0.022	-0.083
-142.502	38.713	-0.190	0.167
-141.487	-105.672	-0.337	0.075
-140.472	-106.475	-0.168	0.037
-139.458	-79.273	0.183	0.061
-138.443	121.670	0.149	-0.183
-137.429	-104.307	0.229	-0.052
-136.414	26.242	0.110	0.091
-135.399	355.770	0.089	0.175
-134.385	-37.844	0.242	0.127
-133.370	-3.677	0.061	0.041
-132.356	-77.000	0.292	-0.101
-131.341	-97.038	0.084	-0.022
-130.326	-200.000	-0.009	-0.076
-129.312	800.000	-0.062	-0.251
-128.297	9.847	0.096	0.072
-127.283	-86.528	0.275	-0.083
-126.268	249.044	-0.133	-0.222
-125.253	185.987	0.170	0.250
-124.239	379.701	-0.139	0.281
-123.224	800.000	0.025	0.073
-122.210	-124.392	-0.024	0.004
-121.195	602.949	0.123	-0.302
