DTS Sentinel unit serial number:	SN413079Multiplexer serial number:	ORYXHardware model number:	OX4-SRSoftware version number:	ORYX F/W v4.00 Oryx Data Collector v3.7.2.0data status	okinstallation	princeton_trtdifferential loss correction	single-endedforward channel	channel 1reverse channel	N/Adate	2019/09/17time	06:10:35forward acquisition time	60.00reverse acquisition time	0.00gamma	496.2192k internal	0.2326k external	0.2326temperature offset calibration	0.9969default loss term (dB/km)	0.3790temperature slope calibration	1.0000multiplexer offset coefficient	1.0000multiplexer slope coefficient	1.0000fibre end	0.00T internal ref (°C)	28.56T ext. ref 1 (°C)	0.13T ext. ref 2 (°C)	21.99length (m)	temperature (°C)	Stokes	anti-Stokes-747.200	16.291	0.373	0.297
-746.185	-200.000	0.027	0.166
-745.171	-200.000	-0.011	-0.120
-744.156	-4.277	0.146	0.102
-743.142	84.935	0.128	0.141
-742.127	-200.000	-0.071	0.317
-741.112	-200.000	0.018	0.145
-740.098	-57.370	-0.295	0.131
-739.083	-128.317	0.034	0.005
-738.069	-200.000	-0.040	0.184
-737.054	-121.926	-0.159	-0.026
-736.039	-86.484	-0.211	0.065
-735.025	800.000	-0.037	0.138
-734.010	-83.298	-0.176	0.057
-732.996	-55.282	-0.126	-0.057
-731.981	-60.354	0.174	-0.075
-730.966	-62.335	-0.371	0.156
-729.952	11.262	0.237	0.183
-728.937	-95.652	-0.190	-0.051
-727.923	-82.746	-0.200	0.065
-726.908	-126.710	-0.284	-0.042
-725.894	-114.224	-0.162	-0.032
-724.879	-124.687	-0.418	-0.065
-723.864	313.799	0.101	0.191
-722.850	-17.379	-0.106	-0.067
-721.835	109.856	-0.075	-0.091
-720.821	-78.254	0.218	0.075
-719.806	-78.021	-0.181	0.063
-718.791	-71.083	-0.295	-0.112
-717.777	-200.000	-0.032	-0.179
-716.762	611.878	0.048	-0.122
-715.748	-200.000	-0.095	-0.496
-714.733	-6.938	0.161	0.110
-713.718	112.764	0.196	0.240
-712.704	761.086	-0.115	0.314
-711.689	-26.704	0.065	0.038
-710.675	305.935	0.085	0.159
-709.660	79.468	-0.194	-0.210
-708.645	-96.364	0.374	0.100
-707.631	379.490	0.048	-0.099
-706.616	11.523	0.074	0.057
-705.602	543.718	0.093	0.224
-704.587	117.539	-0.128	0.159
-703.572	-30.398	0.303	-0.173
-702.558	-116.864	0.376	-0.069
-701.543	-200.000	0.032	0.235
-700.529	-88.503	-0.277	0.083
-699.514	333.415	0.102	0.198
-698.499	-97.593	-0.110	-0.029
-697.485	241.735	-0.144	-0.243
-696.470	-48.666	0.176	-0.085
-695.456	-69.438	0.372	-0.144
-694.441	41.832	0.215	-0.196
-693.426	1.032	-0.147	0.106
-692.412	414.484	0.084	0.181
-691.397	-85.452	-0.209	0.066
-690.383	60.899	-0.047	0.047
-689.368	415.018	0.028	-0.061
-688.354	68.687	0.229	-0.236
-687.339	-200.000	-0.001	-0.070
-686.324	32.171	-0.119	0.103
-685.310	-95.873	-0.178	0.048
-684.295	31.150	-0.114	-0.098
-683.281	-200.000	0.006	-0.151
-682.266	-93.783	-0.237	0.066
-681.251	145.641	-0.145	-0.195
-680.237	149.571	0.082	-0.112
-679.222	-70.548	-0.039	0.015
-678.208	-200.000	-0.518	0.002
-677.193	-200.000	-0.048	-0.322
-676.178	-41.869	-0.131	-0.068
-675.164	-82.776	0.382	-0.124
-674.149	-91.547	-0.265	-0.076
-673.135	0.834	-0.067	0.048
-672.120	67.316	0.128	-0.131
-671.105	185.421	0.181	-0.270
-670.091	28.156	0.190	-0.161
-669.076	62.544	0.226	-0.227
-668.062	-82.688	-0.402	-0.131
-667.047	-200.000	-0.051	0.259
-666.032	46.189	0.142	-0.132
-665.018	-76.792	0.283	0.099
-664.003	190.340	0.142	-0.214
-662.989	-14.255	0.121	-0.078
-661.974	-7.971	-0.461	-0.313
-660.959	92.901	-0.267	-0.304
-659.945	-200.000	-0.015	-0.086
-658.930	253.388	0.068	0.117
-657.916	65.397	0.208	0.211
-656.901	-126.529	-0.372	-0.056
-655.886	-42.496	-0.257	0.132
-654.872	-200.000	-0.003	0.053
-653.857	668.609	-0.074	-0.192
-652.843	131.971	0.193	0.250
-651.828	-90.061	0.135	-0.039
-650.814	-200.000	0.006	0.342
-649.799	-200.000	-0.028	-0.483
-648.784	10.748	-0.477	0.366
-647.770	-101.631	-0.262	0.064
-646.755	-108.910	-0.186	0.040
-645.741	132.370	-0.230	0.298
-644.726	-21.548	-0.112	0.069
-643.711	-200.000	0.031	0.215
-642.697	12.882	0.242	-0.188
-641.682	281.490	-0.060	-0.109
-640.668	64.034	-0.163	-0.165
-639.653	130.631	-0.182	-0.235
-638.638	-200.000	-0.038	-0.186
-637.624	-102.705	-0.284	0.068
-636.609	-94.066	0.134	0.037
-635.595	425.888	0.029	-0.063
-634.580	376.297	0.043	-0.089
-633.565	-131.084	0.234	0.031
-632.551	-151.000	0.134	0.010
-631.536	-67.537	0.096	-0.038
-630.522	-83.165	0.122	-0.039
-629.507	-4.230	-0.339	-0.235
-628.492	-200.000	0.005	-0.044
-627.478	621.238	0.049	-0.123
-626.463	-110.314	-0.308	-0.064
-625.449	44.915	-0.312	-0.288
-624.434	662.158	-0.088	-0.229
-623.419	-200.000	0.028	0.188
-622.405	800.000	0.073	-0.209
-621.390	59.321	-0.364	0.360
-620.376	-44.714	0.147	0.074
-619.361	-129.222	-0.330	-0.046
-618.346	-64.841	-0.152	0.062
-617.332	-105.353	0.313	0.072
-616.317	-85.675	0.060	0.019
-615.303	-73.350	0.619	0.227
-614.288	100.137	-0.256	0.298
-613.273	-200.000	-0.057	0.656
-612.259	-68.786	0.255	-0.099
-611.244	554.806	0.158	0.382
-610.230	-54.936	0.170	0.077
-609.215	-200.000	-0.019	-0.226
-608.201	-144.679	-0.308	0.028
-607.186	-110.622	0.054	0.011
-606.171	800.000	0.115	-0.361
-605.157	-51.590	-0.366	0.171
-604.142	800.000	0.144	0.490
-603.128	566.581	-0.126	-0.307
-602.113	130.901	-0.230	-0.296
-601.098	-200.000	0.031	0.153
-600.084	-200.000	0.042	0.322
-599.069	-200.000	-0.046	0.335
-598.055	-200.000	-0.007	0.127
-597.040	480.743	0.049	-0.112
-596.025	-11.304	-0.179	0.118
-595.011	-29.497	-0.111	0.064
-593.996	248.635	-0.258	-0.439
-592.982	-69.405	0.302	-0.116
-591.967	-91.989	0.206	0.058
-590.952	-89.662	0.087	0.026
-589.938	295.488	0.211	-0.387
-588.923	-200.000	-0.003	-0.106
-587.909	282.406	-0.175	-0.314
-586.894	-96.467	0.356	0.094
-585.879	99.187	0.088	-0.101
-584.865	-200.000	0.035	-0.376
-583.850	-200.000	-0.065	-0.398
-582.836	-68.948	0.259	-0.100
-581.821	-83.577	-0.230	-0.074
-580.806	187.442	-0.119	-0.178
-579.792	19.431	-0.139	0.112
-578.777	-200.000	0.045	-0.259
-577.763	-200.000	-0.034	0.227
-576.748	496.777	0.059	-0.135
-575.733	7.763	-0.268	-0.201
-574.719	237.646	0.039	0.065
-573.704	-200.000	-0.003	-0.024
-572.690	226.506	-0.170	0.276
-571.675	32.561	0.260	-0.225
-570.661	268.346	0.122	0.215
-569.646	-135.805	-0.186	-0.022
-568.631	-193.986	0.156	-0.001
-567.617	-200.000	-0.003	0.241
-566.602	-200.000	0.033	0.306
-565.588	-66.644	-0.282	-0.112
-564.573	-79.762	0.244	0.082
-563.558	-40.992	-0.202	0.104
-562.544	-200.000	-0.012	-0.095
-561.529	-200.000	-0.024	-0.211
-560.515	159.476	-0.273	-0.380
-559.500	-200.000	0.011	-0.173
-558.485	38.055	-0.290	-0.259
-557.471	84.162	-0.231	-0.252
-556.456	527.109	0.055	0.130
-555.442	98.204	-0.071	0.082
-554.427	-200.000	0.028	-0.209
-553.412	-200.000	-0.032	-0.472
-552.398	-9.817	-0.150	0.100
-551.383	728.635	-0.048	-0.128
-550.369	82.266	-0.464	-0.503
-549.354	-4.353	-0.086	0.059
-548.339	309.609	0.076	-0.143
-547.325	-200.000	-0.023	-0.195
-546.310	380.646	-0.057	-0.117
-545.296	-69.643	0.304	-0.116
-544.281	84.799	0.132	0.145
-543.266	-87.148	-0.235	-0.071
-542.252	-120.590	-0.076	-0.013
-541.237	-73.243	-0.471	-0.172
-540.223	-88.334	0.250	0.075
-539.208	150.556	0.204	-0.277
-538.193	-193.936	0.129	0.001
-537.179	6.525	0.213	-0.158
-536.164	-200.000	0.041	-0.262
-535.150	-76.975	0.205	-0.072
-534.135	-90.330	-0.176	0.051
-533.121	208.976	-0.178	-0.279
-532.106	-87.814	-0.064	-0.019
-531.091	800.000	-0.087	-0.257
-530.077	39.796	0.133	-0.119
-529.062	-200.000	0.041	0.460
-528.048	70.495	0.139	0.143
-527.033	231.357	0.107	0.175
-526.018	213.466	0.017	0.027
-525.004	384.290	0.078	0.161
-523.989	-32.784	0.317	-0.176
-522.975	35.864	-0.161	0.141
-521.960	-131.081	0.302	0.040
-520.945	39.191	-0.360	0.322
-519.931	154.692	-0.054	0.074
-518.916	115.012	-0.199	0.243
-517.902	0.754	0.146	-0.104
-516.887	-200.000	0.034	-0.374
-515.872	120.493	-0.182	-0.226
-514.858	800.000	-0.138	-0.384
-513.843	-200.000	0.013	-0.379
-512.829	445.228	-0.056	-0.122
-511.814	-29.735	0.368	-0.210
-510.799	185.690	-0.130	0.192
-509.785	532.911	-0.070	-0.165
-508.770	-14.076	-0.074	0.048
-507.756	-44.993	-0.395	-0.197
-506.741	-3.184	-0.218	-0.152
-505.726	-200.000	0.000	0.017
-504.712	84.846	0.115	0.126
-503.697	-200.000	-0.000	-0.209
-502.683	800.000	-0.060	0.178
-501.668	-54.072	-0.149	-0.068
-500.653	666.034	0.116	-0.298
-499.639	-32.210	-0.153	0.085
-498.624	-200.000	-0.020	-0.252
-497.610	-152.464	0.020	-0.001
-496.595	24.631	-0.221	0.183
-495.581	504.551	0.076	0.176
-494.566	34.907	-0.140	-0.122
-493.551	-101.853	0.279	0.067
-492.537	44.985	0.106	-0.098
-491.522	-200.000	-0.055	0.248
-490.508	-154.330	0.054	0.004
-489.493	800.000	-0.054	0.204
-488.478	407.921	0.144	0.305
-487.464	-148.042	-0.368	-0.031
-486.449	-60.472	0.303	-0.129
-485.435	-5.310	0.236	-0.162
-484.420	-97.215	-0.241	0.063
-483.405	-200.000	0.006	0.160
-482.391	16.101	0.185	0.146
-481.376	341.033	0.081	0.158
-480.362	-200.000	-0.005	0.268
-479.347	-5.001	-0.103	0.071
-478.332	-142.487	0.409	-0.040
-477.318	-200.000	-0.006	0.296
-476.303	521.492	-0.106	-0.248
-475.289	800.000	-0.072	-0.198
-474.274	-74.993	-0.067	0.024
-473.259	-59.311	0.101	-0.043
-472.245	201.247	-0.114	0.175
-471.230	-23.987	-0.352	0.210
-470.216	-200.000	0.031	0.401
-469.201	-200.000	0.015	0.160
-468.186	-1.250	-0.081	-0.057
-467.172	65.929	-0.139	-0.140
-466.157	-200.000	-0.034	-0.299
-465.143	100.103	0.212	-0.246
-464.128	-200.000	-0.006	0.242
-463.113	165.152	-0.145	0.204
-462.099	428.286	-0.025	0.055
-461.084	4.757	0.176	-0.129
-460.070	-188.463	-0.244	0.003
-459.055	-150.492	0.243	0.019
-458.040	166.604	-0.142	-0.200
-457.026	123.613	-0.218	0.272
-456.011	184.991	0.068	-0.101
-454.997	-50.974	-0.262	0.123
-453.982	146.381	-0.099	-0.132
-452.968	-36.611	0.154	-0.083
-451.953	-30.151	0.234	0.133
-450.938	-200.000	-0.022	0.107
-449.924	183.913	0.150	-0.221
-448.909	-200.000	-0.052	-0.250
-447.895	-200.000	0.040	0.221
-446.880	180.707	0.105	-0.154
-445.865	42.138	-0.106	0.096
-444.851	38.901	-0.128	0.114
-443.836	800.000	0.168	0.594
-442.822	-126.344	0.378	-0.056
-441.807	266.503	-0.158	-0.274
-440.792	-200.000	0.013	-0.222
-439.778	-200.000	-0.012	0.135
-438.763	-200.000	0.061	-0.584
-437.749	-76.931	0.314	0.109
-436.734	325.364	0.116	0.220
-435.719	-7.552	0.243	0.164
-434.705	800.000	-0.076	0.248
-433.690	-200.000	-0.024	0.380
-432.676	-200.000	0.015	0.241
-431.661	-31.497	-0.128	0.072
-430.646	206.992	-0.214	-0.332
-429.632	192.317	-0.063	-0.095
-428.617	-200.000	0.038	0.180
-427.603	800.000	0.037	-0.120
-426.588	800.000	0.079	0.245
-425.573	124.819	-0.155	-0.195
-424.559	-16.860	0.206	0.129
-423.544	340.546	0.081	-0.158
-422.530	575.213	-0.107	-0.261
-421.515	-200.000	-0.047	0.262
-420.500	-118.466	0.293	-0.052
-419.486	-61.779	0.337	0.140
-418.471	66.768	0.119	0.121
-417.457	-156.767	0.078	-0.005
-416.442	-37.436	0.111	0.059
-415.428	333.466	-0.089	0.171
-414.413	-200.000	0.046	-0.436
-413.398	154.731	0.041	0.056
-412.384	800.000	0.078	0.234
-411.369	-109.520	-0.245	0.052
-410.355	-146.860	-0.179	0.015
-409.340	230.896	-0.167	0.273
-408.325	-200.000	0.050	0.238
-407.311	209.826	0.089	0.139
-406.296	-10.933	0.185	0.122
-405.282	33.735	-0.104	0.090
-404.267	-18.788	0.134	-0.083
-403.252	-60.619	-0.158	-0.067
-402.238	79.199	0.114	0.121
-401.223	800.000	-0.040	0.154
-400.209	-200.000	0.033	-0.319
-399.194	648.594	0.050	0.126
-398.179	-200.000	-0.011	0.297
-397.165	-200.000	-0.039	-0.176
-396.150	478.432	-0.191	-0.430
-395.136	177.585	-0.113	0.163
-394.121	306.649	-0.007	0.013
-393.106	89.608	-0.251	-0.279
-392.092	171.530	0.065	0.094
-391.077	-159.376	0.442	0.025
-390.063	-149.843	0.419	0.033
-389.048	216.486	0.084	0.133
-388.033	-131.853	-0.229	-0.030
-387.019	-200.000	0.043	-0.262
-386.004	0.132	-0.107	-0.076
-384.990	-4.303	0.181	0.125
-383.975	79.629	0.067	-0.071
-382.960	-200.000	0.008	-0.081
-381.946	18.399	0.362	0.288
-380.931	58.511	0.225	-0.220
-379.917	396.762	-0.028	-0.057
-378.902	74.660	0.227	0.238
-377.888	-58.394	0.151	0.065
-376.873	9.534	-0.099	0.074
-375.858	-122.258	0.352	0.057
-374.844	36.297	-0.039	0.034
-373.829	-82.295	0.343	-0.111
-372.815	222.357	0.171	-0.274
-371.800	800.000	0.017	0.055
-370.785	680.054	0.057	-0.147
-369.771	800.000	-0.031	-0.106
-368.756	5.960	-0.186	0.137
-367.742	-55.434	-0.208	-0.093
-366.727	-9.640	-0.125	-0.083
-365.712	39.183	0.108	-0.096
-364.698	150.313	0.141	0.190
-363.683	-158.242	0.140	-0.008
-362.669	-200.000	-0.002	-0.151
-361.654	-3.910	-0.260	0.179
-360.639	-72.810	0.212	0.077
-359.625	-52.724	-0.175	0.080
-358.610	231.699	-0.021	0.034
-357.596	-54.216	-0.029	0.013
-356.581	72.866	-0.144	-0.150
-355.566	413.987	0.203	0.430
-354.552	59.191	0.164	0.161
-353.537	800.000	0.027	0.092
-352.523	-89.503	0.145	-0.042
-351.508	-31.361	0.160	-0.089
-350.493	-200.000	-0.024	-0.173
-349.479	38.068	-0.101	-0.089
-348.464	-200.000	-0.058	0.355
-347.450	-200.000	0.004	0.130
-346.435	800.000	0.043	-0.139
-345.420	264.172	0.057	0.099
-344.406	110.206	-0.043	-0.051
-343.391	-167.779	0.067	-0.003
-342.377	-120.876	-0.212	-0.035
-341.362	-54.330	-0.063	0.029
-340.348	-137.516	0.161	0.018
-339.333	226.199	0.110	-0.177
-338.318	-200.000	0.183	-0.000
-337.304	320.710	0.090	0.171
-336.289	146.473	-0.177	0.236
-335.275	93.332	-0.030	-0.034
-334.260	-200.000	0.002	0.184
-333.245	-103.046	-0.273	0.064
-332.231	415.971	-0.078	-0.165
-331.216	-41.875	0.044	-0.023
-330.202	-66.997	-0.224	0.088
-329.187	-101.642	-0.259	0.063
-328.172	-200.000	0.025	-0.122
-327.158	-48.216	-0.373	-0.178
-326.143	236.391	0.208	-0.342
-325.129	108.561	-0.049	0.058
-324.114	-110.876	0.218	-0.045
-323.099	-185.131	0.420	-0.006
-322.085	286.020	0.125	0.224
-321.070	-178.083	-0.301	-0.007
-320.056	-26.317	-0.365	-0.213
-319.041	603.441	0.039	0.097
-318.026	28.303	-0.093	-0.078
-317.012	156.473	-0.085	0.116
-315.997	-70.764	-0.269	-0.101
-314.983	123.373	-0.088	0.109
-313.968	43.160	0.251	0.227
-312.953	-69.963	-0.162	0.061
-311.939	519.068	0.033	0.078
-310.924	285.944	-0.104	0.186
-309.910	-200.000	-0.039	-0.299
-308.895	267.657	0.201	-0.349
-307.880	122.096	-0.103	0.127
-306.866	14.556	0.345	0.267
-305.851	24.309	-0.196	0.160
-304.837	323.987	-0.089	0.168
-303.822	31.690	0.351	-0.299
-302.807	-39.766	0.201	0.104
-301.793	-200.000	-0.016	0.157
-300.778	189.666	-0.209	-0.311
-299.764	-11.236	0.063	0.041
-298.749	213.730	-0.103	-0.161
-297.735	371.876	-0.077	-0.155
-296.720	31.164	-0.166	-0.141
-295.705	170.374	0.154	-0.218
-294.691	-30.342	0.184	-0.104
-293.676	169.188	0.098	0.138
-292.662	297.782	-0.044	0.080
-291.647	-15.506	0.167	-0.106
-290.632	440.930	-0.065	0.140
-289.618	-0.296	0.412	-0.290
-288.603	-20.147	0.094	-0.057
-287.589	57.000	0.110	0.106
-286.574	42.977	0.211	-0.191
-285.559	-53.644	-0.154	-0.070
-284.545	-127.770	-0.348	-0.050
-283.530	-83.347	0.279	-0.089
-282.516	205.637	0.095	0.146
-281.501	-153.593	-0.435	0.030
-280.486	-193.805	0.352	-0.003
-279.472	263.997	0.182	-0.314
-278.457	223.281	-0.090	0.144
-277.443	-54.717	-0.183	0.082
-276.428	-200.000	-0.019	0.152
-275.413	35.982	0.356	0.310
-274.399	-200.000	0.007	-0.124
-273.384	74.476	0.197	-0.205
-272.370	386.184	-0.082	-0.167
-271.355	88.293	0.016	-0.017
-270.340	-153.255	0.175	-0.012
-269.326	-46.359	0.109	0.053
-268.311	168.326	0.078	-0.111
-267.297	-200.000	0.026	0.425
-266.282	255.036	-0.104	0.176
-265.267	318.655	0.130	0.244
-264.253	136.026	-0.194	-0.250
-263.238	-184.459	-0.142	-0.002
-262.224	260.734	-0.188	-0.322
-261.209	-86.669	-0.032	-0.010
-260.195	93.947	-0.118	-0.132
-259.180	-200.000	0.004	-0.293
-258.165	694.017	0.116	0.301
-257.151	-200.000	0.027	0.135
-256.136	-147.298	-0.190	-0.016
-255.122	674.916	-0.108	-0.278
-254.107	-83.840	-0.174	-0.055
-253.092	480.776	0.083	0.187
-252.078	28.663	-0.159	0.133
-251.063	800.000	0.072	-0.235
-250.049	1.862	0.200	0.143
-249.034	303.700	-0.283	0.519
-248.019	-41.786	-0.371	-0.188
-247.005	138.478	0.114	-0.148
-245.990	501.273	0.076	-0.175
-244.976	-139.175	-0.158	-0.017
-243.961	-200.000	0.018	-0.379
-242.946	-70.631	0.218	-0.081
-241.932	198.062	0.160	0.242
-240.917	-200.000	0.021	0.145
-239.903	-49.041	0.049	-0.023
-238.888	182.621	0.201	0.293
-237.873	52.227	0.084	-0.080
-236.859	-60.343	0.339	0.143
-235.844	54.445	-0.230	0.219
-234.830	-105.450	-0.129	0.029
-233.815	109.756	-0.078	-0.093
-232.800	-200.000	-0.028	0.516
-231.786	800.000	-0.110	0.462
-230.771	267.513	0.191	0.330
-229.757	-200.000	0.014	-0.158
-228.742	-91.116	0.219	-0.062
-227.727	-18.250	0.122	0.076
-226.713	139.299	0.252	-0.327
-225.698	800.000	-0.122	-0.370
-224.684	230.275	0.149	0.241
-223.669	63.922	0.163	0.162
-222.655	0.686	0.285	-0.202
-221.640	-200.000	0.011	0.150
-220.625	761.469	0.086	0.232
-219.611	-7.246	-0.188	0.126
-218.596	800.000	-0.022	-0.087
-217.582	9.293	0.224	0.167
-216.567	-125.686	0.205	-0.031
-215.552	-79.080	-0.083	0.028
-214.538	-200.000	-0.033	-0.379
-213.523	196.844	0.032	0.048
-212.509	-136.929	-0.132	0.015
-211.494	800.000	0.020	0.063
-210.479	-200.000	-0.006	0.390
-209.465	800.000	-0.070	0.196
-208.450	-106.494	0.041	-0.009
-207.436	800.000	-0.116	0.476
-206.421	-88.924	0.098	-0.029
-205.406	108.889	-0.020	0.024
-204.392	117.736	0.075	0.091
-203.377	-166.518	-0.494	0.020
-202.363	367.803	-0.106	0.212
-201.348	-200.000	-0.034	0.170
-200.333	164.504	0.094	-0.130
-199.319	-48.871	-0.495	0.234
-198.304	-144.064	-0.260	0.024
-197.290	-200.000	-0.005	-0.305
-196.275	-2.476	-0.303	-0.210
-195.260	-189.935	-0.203	0.002
-194.246	-9.735	0.354	0.233
-193.231	-145.720	-0.187	-0.016
-192.217	570.962	0.076	-0.183
-191.202	275.585	-0.133	-0.233
-190.187	-200.000	-0.070	0.435
-189.173	-108.736	-0.236	-0.050
-188.158	-200.000	0.001	0.039
-187.144	-200.000	0.017	-0.089
-186.129	-200.000	-0.002	0.388
-185.114	-94.400	0.073	-0.020
-184.100	553.904	-0.089	0.211
-183.085	-1.130	0.320	0.223
-182.071	-7.428	-0.261	-0.174
-181.056	-40.943	0.074	0.038
-180.042	639.514	-0.036	0.090
-179.027	-200.000	-0.020	-0.300
-178.012	-50.482	-0.355	0.165
-176.998	388.683	0.095	-0.195
-175.983	-145.692	-0.181	-0.016
-174.969	765.294	-0.039	-0.104
-173.954	75.877	0.078	0.081
-172.939	124.310	-0.017	-0.021
-171.925	178.952	-0.182	-0.263
-170.910	-31.374	0.223	0.124
-169.896	-30.413	0.320	0.179
-168.881	-200.000	-0.032	0.142
-167.866	162.147	0.035	-0.049
-166.852	-200.000	-0.004	0.094
-165.837	720.268	-0.055	-0.145
-164.823	353.620	-0.124	-0.244
-163.808	647.273	-0.040	0.102
-162.793	800.000	-0.066	-0.218
-161.779	147.507	0.086	-0.114
-160.764	-35.601	0.256	-0.137
-159.750	-35.728	0.216	-0.116
-158.735	55.992	0.206	-0.197
-157.720	800.000	-0.040	-0.141
-156.706	23.150	0.353	0.286
-155.691	-165.042	0.191	-0.008
-154.677	-200.000	0.037	0.341
-153.662	85.856	-0.176	0.190
-152.647	433.242	0.022	0.047
-151.633	653.691	0.088	-0.221
-150.618	-200.000	0.001	-0.166
-149.604	-200.000	-0.014	-0.181
-148.589	-136.234	-0.246	-0.028
-147.574	-153.330	-0.284	-0.020
-146.560	-200.000	0.030	0.162
-145.545	-200.000	0.030	0.160
-144.531	-40.469	-0.145	-0.074
-143.516	-14.586	0.073	0.047
-142.502	800.000	-0.033	0.095
-141.487	-200.000	0.078	0.364
-140.472	-125.905	0.172	0.026
-139.458	96.118	0.289	-0.326
-138.443	-13.049	0.118	-0.075
-137.429	-164.728	-0.119	0.005
-136.414	-75.730	-0.568	-0.198
-135.399	-200.000	-0.004	-0.206
-134.385	800.000	0.035	-0.114
-133.370	-200.000	-0.000	0.141
-132.356	-98.276	-0.098	0.025
-131.341	51.813	-0.381	0.357
-130.326	192.179	0.093	-0.138
-129.312	31.599	0.113	0.095
-128.297	-200.000	-0.031	-0.257
-127.283	448.714	-0.119	0.257
-126.268	41.242	0.223	0.198
-125.253	166.144	-0.235	0.327
-124.239	-174.481	0.277	-0.008
-123.224	-35.460	0.045	-0.024
-122.210	-149.492	0.263	0.021
-121.195	406.158	0.108	0.225
