DTS Sentinel unit serial number:	SN413079Multiplexer serial number:	ORYXHardware model number:	OX4-SRSoftware version number:	ORYX F/W v4.00 Oryx Data Collector v3.7.2.0data status	okinstallation	princeton_trtdifferential loss correction	single-endedforward channel	channel 1reverse channel	N/Adate	2019/09/13time	02:14:35forward acquisition time	60.00reverse acquisition time	0.00gamma	496.2192k internal	0.2331k external	0.2331temperature offset calibration	1.0153default loss term (dB/km)	0.3790temperature slope calibration	1.0000multiplexer offset coefficient	1.0000multiplexer slope coefficient	1.0000fibre end	0.00T internal ref (°C)	27.56T ext. ref 1 (°C)	3.91T ext. ref 2 (°C)	22.34length (m)	temperature (°C)	Stokes	anti-Stokes-747.200	764.265	0.025	-0.069
-746.185	-133.228	-0.373	0.047
-745.171	78.972	0.067	-0.073
-744.156	-47.904	0.347	0.169
-743.142	173.652	0.152	-0.221
-742.127	-4.949	0.084	0.058
-741.112	-67.908	-0.313	-0.123
-740.098	162.729	-0.269	0.379
-739.083	136.494	-0.152	-0.199
-738.069	117.233	-0.093	0.115
-737.054	-24.982	-0.152	0.091
-736.039	-200.000	0.017	0.088
-735.025	9.981	0.232	0.178
-734.010	-200.000	0.009	-0.148
-732.996	773.173	-0.126	-0.345
-731.981	-25.789	0.216	-0.128
-730.966	-200.000	0.017	-0.232
-729.952	122.735	-0.124	0.156
-728.937	800.000	-0.036	-0.130
-727.923	121.786	-0.110	-0.138
-726.908	394.889	0.157	-0.329
-725.894	-22.309	-0.296	-0.180
-724.879	-200.000	0.026	-0.162
-723.864	447.271	0.166	0.366
-722.850	-102.209	-0.147	-0.036
-721.835	-124.040	0.122	0.019
-720.821	-200.000	0.019	-0.117
-719.806	126.581	-0.143	0.182
-718.791	1.974	-0.318	0.231
-717.777	-118.445	-0.197	0.035
-716.762	-46.226	0.241	-0.119
-715.748	-200.000	-0.043	-0.197
-714.733	304.958	-0.086	-0.161
-713.718	7.307	0.196	-0.147
-712.704	-200.000	0.007	-0.223
-711.689	-135.866	0.092	-0.011
-710.675	800.000	0.064	0.184
-709.660	-73.357	0.030	-0.011
-708.645	-156.073	-0.175	0.011
-707.631	-124.155	0.219	-0.035
-706.616	168.180	0.177	-0.253
-705.602	-106.083	-0.188	-0.043
-704.587	800.000	0.009	0.028
-703.572	-93.219	-0.248	0.069
-702.558	123.200	-0.171	0.215
-701.543	82.975	-0.015	0.017
-700.529	-103.383	-0.346	-0.082
-699.514	117.850	0.274	0.339
-698.499	800.000	0.081	0.273
-697.485	-200.000	-0.311	0.001
-696.470	-74.763	0.123	0.044
-695.456	800.000	-0.071	0.275
-694.441	293.610	0.096	0.176
-693.426	-7.689	0.184	0.125
-692.412	6.663	-0.106	-0.079
-691.397	-19.848	0.092	-0.057
-690.383	376.856	0.158	-0.324
-689.368	-49.311	-0.359	-0.172
-688.354	-45.540	-0.311	-0.155
-687.339	538.791	-0.088	-0.210
-686.324	641.131	-0.085	-0.218
-685.310	-14.276	0.275	0.178
-684.295	-132.778	-0.096	0.012
-683.281	-129.159	-0.174	-0.024
-682.266	-160.140	0.227	-0.012
-681.251	-200.000	-0.004	-0.039
-680.237	-200.000	0.065	0.446
-679.222	372.963	-0.168	-0.343
-678.208	-200.000	0.008	0.087
-677.193	91.090	0.176	-0.198
-676.178	-200.000	0.172	-0.000
-675.164	124.865	-0.192	0.243
-674.149	123.202	-0.084	-0.105
-673.135	-141.431	0.328	-0.033
-672.120	-96.121	-0.078	0.021
-671.105	-106.822	-0.152	-0.034
-670.091	-113.226	-0.122	0.024
-669.076	300.752	0.034	-0.063
-668.062	-200.000	0.063	-0.335
-667.047	-200.000	0.028	-0.377
-666.032	188.447	0.016	0.024
-665.018	117.393	0.149	0.184
-664.003	-102.996	0.324	0.077
-662.989	-200.000	-0.019	0.307
-661.974	54.225	-0.074	0.071
-660.959	756.492	0.095	-0.257
-659.945	800.000	-0.079	-0.299
-658.930	-200.000	-0.025	-0.122
-657.916	4.036	-0.248	0.182
-656.901	800.000	0.025	0.093
-655.886	-84.152	0.161	-0.051
-654.872	800.000	0.037	-0.122
-653.857	438.677	0.063	0.137
-652.843	-200.000	0.001	0.031
-651.828	-9.269	-0.174	-0.117
-650.814	-72.137	-0.117	-0.044
-649.799	143.553	-0.199	-0.265
-648.784	322.465	-0.096	0.183
-647.770	-24.820	-0.149	-0.089
-646.755	-200.000	-0.005	-0.099
-645.741	-133.202	-0.253	-0.032
-644.726	348.204	-0.019	-0.038
-643.711	583.542	0.153	-0.376
-642.697	74.101	-0.222	-0.233
-641.682	387.749	0.207	0.429
-640.668	84.229	-0.259	0.284
-639.653	-200.000	0.037	-0.165
-638.638	-200.000	0.002	-0.142
-637.624	51.823	0.098	0.093
-636.609	-35.145	-0.293	-0.160
-635.595	92.841	-0.241	-0.272
-634.580	536.908	0.071	0.169
-633.565	166.214	-0.176	0.250
-632.551	-159.411	-0.134	0.007
-631.536	740.655	0.063	-0.169
-630.522	800.000	-0.012	-0.053
-629.507	-138.390	-0.295	0.033
-628.492	667.867	0.108	0.280
-627.478	-180.474	0.138	-0.003
-626.463	92.998	-0.140	0.159
-625.449	58.482	-0.180	-0.176
-624.434	459.357	0.046	0.103
-623.419	-200.000	0.004	0.096
-622.405	-200.000	0.033	0.149
-621.390	-200.000	0.003	0.038
-620.376	446.682	-0.009	-0.019
-619.361	288.996	-0.028	-0.052
-618.346	42.573	0.117	-0.106
-617.332	-200.000	-0.014	0.305
-616.317	-78.625	0.045	0.016
-615.303	356.938	-0.168	-0.336
-614.288	310.955	0.108	-0.202
-613.273	80.655	0.105	-0.114
-612.259	-53.418	0.331	-0.152
-611.244	-171.623	0.185	-0.006
-610.230	179.472	0.102	0.150
-609.215	-183.950	-0.200	0.003
-608.201	365.150	0.057	0.115
-607.186	-152.502	-0.138	0.010
-606.171	-2.803	-0.241	0.169
-605.157	-200.000	-0.007	0.347
-604.142	117.902	-0.178	0.220
-603.128	-35.630	0.463	-0.252
-602.113	17.775	0.129	-0.103
-601.098	-37.251	-0.190	-0.102
-600.084	-200.000	0.028	-0.143
-599.069	132.507	-0.141	-0.182
-598.055	179.696	0.213	0.312
-597.040	-108.588	0.303	0.065
-596.025	75.793	-0.369	-0.390
-595.011	5.913	-0.166	0.123
-593.996	800.000	0.083	-0.357
-592.982	271.908	-0.156	0.275
-591.967	-200.000	-0.020	-0.167
-590.952	443.745	-0.109	-0.240
-589.938	-110.902	-0.216	0.044
-588.923	-63.183	0.127	-0.052
-587.909	231.023	-0.072	0.118
-586.894	544.355	-0.013	0.030
-585.879	-200.000	0.042	-0.348
-584.865	-41.840	0.124	-0.063
-583.850	634.008	-0.104	-0.264
-582.836	-200.000	-0.021	0.116
-581.821	-48.870	-0.094	0.045
-580.806	52.558	0.176	0.168
-579.792	-24.337	-0.246	-0.147
-578.777	4.256	0.152	-0.111
-577.763	-132.143	0.250	0.032
-576.748	-70.513	-0.169	-0.064
-575.733	247.273	-0.118	0.199
-574.719	-36.467	-0.471	0.253
-573.704	67.629	0.024	-0.024
-572.690	800.000	-0.064	-0.190
-571.675	-80.240	-0.215	-0.072
-570.661	284.017	-0.073	0.130
-569.646	-25.660	0.399	-0.235
-568.631	-92.693	0.411	-0.115
-567.617	-200.000	0.011	-0.051
-566.602	393.613	0.088	0.182
-565.588	602.512	0.153	-0.379
-564.573	109.126	0.143	0.171
-563.558	-156.450	-0.266	-0.017
-562.544	-28.343	-0.201	-0.116
-561.529	-200.000	0.007	-0.279
-560.515	-200.000	0.029	-0.192
-559.500	28.980	0.342	0.289
-558.485	800.000	-0.077	-0.217
-557.471	800.000	-0.084	0.287
-556.456	-200.000	0.014	0.079
-555.442	126.803	0.177	-0.224
-554.427	165.688	0.185	-0.261
-553.412	396.921	0.070	0.146
-552.398	800.000	-0.084	-0.318
-551.383	800.000	0.109	-0.357
-550.369	-200.000	-0.006	-0.068
-549.354	50.682	0.154	-0.145
-548.339	800.000	-0.102	0.335
-547.325	61.752	-0.010	0.010
-546.310	87.365	0.157	0.173
-545.296	8.137	0.475	-0.356
-544.281	-200.000	0.184	-0.000
-543.266	-118.790	-0.179	-0.031
-542.252	52.456	0.107	-0.102
-541.237	504.706	-0.059	-0.137
-540.223	167.713	0.153	-0.217
-539.208	66.058	0.188	-0.190
-538.193	72.968	0.085	0.089
-537.179	800.000	0.108	0.370
-536.164	-91.128	-0.308	0.088
-535.150	-52.198	-0.252	0.117
-534.135	264.029	0.043	-0.074
-533.121	194.868	0.169	-0.256
-532.106	-166.084	-0.085	-0.004
-531.091	-96.932	0.197	-0.051
-530.077	-119.306	-0.040	0.007
-529.062	-98.685	-0.333	-0.085
-528.048	-200.000	0.047	0.253
-527.033	358.559	0.020	0.039
-526.018	-21.940	-0.156	0.095
-525.004	318.951	-0.101	-0.191
-523.989	-122.742	-0.403	-0.065
-522.975	192.640	-0.131	0.198
-521.960	8.593	-0.041	0.031
-520.945	-200.000	0.010	0.513
-519.931	-31.577	0.239	0.134
-518.916	-105.010	0.273	0.062
-517.902	2.522	-0.220	0.159
-516.887	800.000	-0.042	-0.120
-515.872	29.547	0.122	0.103
-514.858	-124.642	-0.277	-0.043
-513.843	-200.000	-0.013	-0.088
-512.829	-200.000	-0.024	0.209
-511.814	317.983	0.132	-0.249
-510.799	-89.585	-0.152	-0.045
-509.785	-200.000	-0.001	0.029
-508.770	-200.000	-0.025	0.174
-507.756	800.000	-0.009	0.037
-506.741	591.063	-0.122	0.300
-505.726	-57.452	-0.197	0.086
-504.712	413.625	0.067	-0.141
-503.697	-13.862	-0.378	-0.243
-502.683	-154.299	-0.132	-0.009
-501.668	178.488	0.131	-0.190
-500.653	800.000	0.031	0.119
-499.639	361.974	-0.011	0.021
-498.624	-125.793	0.071	0.011
-497.610	203.857	0.018	-0.027
-496.595	-152.876	-0.243	0.017
-495.581	143.080	0.053	0.070
-494.566	800.000	-0.031	-0.128
-493.551	-200.000	0.014	-0.285
-492.537	-75.733	0.118	0.042
-491.522	-88.172	0.403	-0.120
-490.508	-66.988	0.187	0.074
-489.493	685.661	0.046	0.121
-488.478	-93.940	0.174	-0.048
-487.464	-137.725	0.379	0.042
-486.449	727.344	0.017	-0.044
-485.435	-200.000	-0.026	0.478
-484.420	800.000	-0.087	-0.254
-483.405	193.870	-0.016	0.024
-482.391	-145.151	-0.080	0.007
-481.376	128.893	0.059	0.075
-480.362	800.000	0.045	-0.135
-479.347	-89.449	-0.298	-0.087
-478.332	191.092	-0.078	0.116
-477.318	800.000	0.033	-0.134
-476.303	-121.735	-0.338	-0.056
-475.289	19.070	-0.067	-0.053
-474.274	-200.000	-0.005	0.130
-473.259	-11.759	-0.144	-0.094
-472.245	800.000	-0.065	0.244
-471.230	173.331	0.201	-0.288
-470.216	198.525	-0.230	-0.350
-469.201	280.235	0.115	0.204
-468.186	-157.196	0.149	-0.009
-467.172	250.373	-0.090	-0.152
-466.157	126.717	0.112	-0.142
-465.143	-4.158	0.146	0.100
-464.128	229.974	0.241	0.391
-463.113	-91.775	-0.250	0.071
-462.099	92.968	0.322	-0.363
-461.084	298.024	-0.060	-0.111
-460.070	156.103	-0.131	-0.179
-459.055	-102.561	0.323	-0.077
-458.040	-200.000	0.030	0.164
-457.026	-200.000	0.009	0.208
-456.011	-75.770	0.104	0.037
-454.997	-145.970	-0.230	-0.020
-453.982	-200.000	0.000	0.108
-452.968	-200.000	-0.031	0.261
-451.953	167.285	0.131	0.185
-450.938	94.747	-0.213	0.241
-449.924	163.930	0.207	-0.290
-448.909	61.902	0.082	-0.081
-447.895	-88.944	-0.333	0.098
-446.880	-102.809	-0.042	0.010
-445.865	-74.906	-0.082	0.029
-444.851	-26.609	0.119	-0.070
-443.836	-142.701	0.194	-0.019
-442.822	-41.435	-0.171	0.088
-441.807	-57.575	0.236	0.103
-440.792	800.000	-0.077	0.245
-439.778	-99.633	-0.329	-0.082
-438.763	-200.000	-0.011	0.156
-437.749	-80.994	-0.118	0.039
-436.734	-137.117	0.225	0.025
-435.719	132.425	0.157	-0.202
-434.705	296.576	-0.020	-0.036
-433.690	161.846	0.155	0.216
-432.676	-30.951	0.207	0.116
-431.661	55.192	0.178	-0.171
-430.646	49.400	-0.118	-0.111
-429.632	276.673	-0.177	0.312
-428.617	36.720	0.059	0.052
-427.603	-0.834	-0.381	0.268
-426.588	-200.000	0.230	-0.000
-425.573	34.190	0.231	0.200
-424.559	-31.135	-0.041	-0.023
-423.544	522.344	0.070	-0.162
-422.530	-100.356	0.285	0.070
-421.515	491.339	0.076	0.172
-420.500	-200.000	0.003	-0.026
-419.486	-151.665	-0.396	-0.029
-418.471	-200.000	0.027	0.377
-417.457	256.196	0.043	0.074
-416.442	-25.976	0.355	-0.208
-415.428	-171.698	0.170	0.006
-414.413	410.789	-0.100	0.210
-413.398	-159.628	0.215	-0.012
-412.384	-45.345	-0.201	-0.099
-411.369	-112.355	-0.205	-0.041
-410.355	171.075	0.011	0.015
-409.340	498.685	-0.155	-0.354
-408.325	-41.615	0.252	0.129
-407.311	122.701	-0.437	-0.543
-406.296	-21.073	0.234	-0.142
-405.282	800.000	-0.040	-0.118
-404.267	-16.166	-0.276	-0.174
-403.252	-200.000	0.000	0.031
-402.238	-79.122	0.193	0.065
-401.223	94.910	-0.167	-0.188
-400.209	800.000	-0.050	-0.206
-399.194	251.635	0.229	-0.387
-398.179	134.784	-0.094	0.121
-397.165	-156.645	0.054	0.003
-396.150	-16.521	-0.129	0.081
-395.136	172.254	0.191	0.273
-394.121	-200.000	0.008	0.076
-393.106	-200.000	-0.009	-0.126
-392.092	-172.528	-0.181	-0.006
-391.077	-112.445	0.337	0.067
-390.063	-200.000	0.042	-0.241
-389.048	800.000	0.026	0.104
-388.033	128.779	-0.160	0.203
-387.019	-200.000	-0.014	0.070
-386.004	139.779	-0.160	-0.209
-384.990	-82.122	0.142	-0.046
-383.975	703.472	0.103	-0.270
-382.960	82.327	-0.118	0.127
-381.946	10.832	0.263	-0.199
-380.931	-147.494	0.203	-0.017
-379.917	800.000	0.100	-0.399
-378.902	-116.468	-0.324	-0.059
-377.888	461.296	-0.076	0.167
-376.873	333.959	0.051	-0.098
-375.858	-12.688	-0.355	-0.230
-374.844	-128.399	-0.089	0.013
-373.829	557.245	0.039	0.093
-372.815	-124.015	-0.259	0.040
-371.800	133.984	-0.190	0.244
-370.785	-114.640	-0.503	0.096
-369.771	-200.000	0.001	0.176
-368.756	445.723	-0.129	-0.282
-367.742	590.069	-0.061	-0.149
-366.727	240.481	0.068	-0.113
-365.712	-200.000	-0.011	0.221
-364.698	-47.072	0.259	0.125
-363.683	457.471	-0.216	-0.477
-362.669	1.415	-0.078	-0.056
-361.654	-71.105	-0.354	-0.132
-360.639	174.647	0.062	0.088
-359.625	67.706	0.075	0.076
-358.610	16.966	-0.168	-0.132
-357.596	-152.194	-0.400	-0.029
-356.581	422.487	-0.039	0.083
-355.566	580.700	-0.113	0.273
-354.552	49.524	-0.023	0.021
-353.537	-200.000	-0.043	0.322
-352.523	395.094	0.159	0.328
-351.508	800.000	0.044	-0.167
-350.493	-11.780	-0.408	0.266
-349.479	800.000	0.057	-0.171
-348.464	-142.687	-0.200	0.019
-347.450	269.390	0.010	-0.017
-346.435	800.000	-0.062	0.234
-345.420	388.503	0.154	0.315
-344.406	800.000	-0.113	0.372
-343.391	-37.478	-0.168	-0.089
-342.377	-107.082	-0.139	0.030
-341.362	195.334	0.075	0.114
-340.348	-50.201	0.032	0.015
-339.333	13.740	0.074	0.057
-338.318	-141.577	0.253	0.025
-337.304	-35.362	-0.179	-0.096
-336.289	-4.720	-0.375	-0.256
-335.275	-200.000	-0.024	-0.115
-334.260	166.454	-0.156	-0.218
-333.245	669.952	0.146	-0.375
-332.231	-200.000	0.005	-0.084
-331.216	172.002	0.095	0.135
-330.202	800.000	-0.112	0.437
-329.187	371.851	0.104	-0.208
-328.172	-40.199	-0.184	-0.095
-327.158	800.000	-0.044	-0.174
-326.143	-200.000	0.007	0.196
-325.129	-64.732	-0.394	-0.158
-324.114	9.625	-0.095	0.071
-323.099	45.104	0.061	-0.055
-322.085	-155.271	-0.577	0.037
-321.070	276.924	0.100	0.177
-320.056	-94.709	-0.257	-0.069
-319.041	103.953	-0.171	-0.199
-318.026	-67.482	0.097	-0.038
-317.012	241.301	-0.256	-0.422
-315.997	-91.535	-0.112	-0.032
-314.983	-200.000	-0.019	0.201
-313.968	-73.522	0.273	-0.098
-312.953	92.369	0.088	-0.098
-311.939	-70.111	0.414	0.156
-310.924	800.000	-0.037	0.138
-309.910	800.000	0.126	0.500
-308.895	-200.000	0.052	-0.391
-307.880	26.741	0.211	0.175
-306.866	705.764	0.054	0.141
-305.851	-78.714	-0.290	-0.098
-304.837	63.964	0.176	0.175
-303.822	-200.000	-0.003	0.121
-302.807	-124.518	0.155	-0.024
-301.793	42.451	0.103	-0.093
-300.778	524.561	-0.115	0.268
-299.764	72.305	-0.101	0.104
-298.749	-124.763	-0.114	-0.017
-297.735	-49.446	0.289	-0.136
-296.720	-89.551	-0.173	-0.050
-295.705	44.870	-0.048	-0.044
-294.691	-200.000	-0.021	-0.229
-293.676	-73.926	0.145	0.052
-292.662	3.983	0.028	0.020
-291.647	186.709	0.164	0.241
-290.632	-129.592	-0.139	0.019
-289.618	43.960	-0.324	-0.293
-288.603	99.474	0.026	-0.030
-287.589	-80.952	0.143	-0.047
-286.574	310.187	-0.221	-0.409
-285.559	31.626	-0.049	-0.042
-284.545	-129.343	0.210	0.029
-283.530	-83.282	0.123	0.039
-282.516	56.747	0.090	-0.086
-281.501	800.000	0.040	-0.139
-280.486	434.933	0.167	-0.359
-279.472	654.394	0.037	0.094
-278.457	776.936	-0.018	-0.048
-277.443	34.450	0.039	0.033
-276.428	112.504	0.063	0.076
-275.413	-200.000	-0.016	-0.499
-274.399	-108.183	-0.130	-0.028
-273.384	259.545	-0.131	0.223
-272.370	228.430	-0.073	0.118
-271.355	-43.342	-0.155	0.077
-270.340	48.369	-0.267	0.247
-269.326	-73.327	0.278	0.101
-268.311	201.806	0.178	0.272
-267.297	-132.891	0.499	0.063
-266.282	-200.000	0.024	0.159
-265.267	-200.000	0.055	0.449
-264.253	-69.018	-0.275	-0.105
-263.238	198.208	-0.100	-0.151
-262.224	800.000	-0.111	0.323
-261.209	304.922	0.101	-0.185
-260.195	-200.000	-0.008	0.357
-259.180	482.179	0.140	-0.314
-258.165	507.956	-0.053	-0.122
-257.151	-200.000	-0.004	0.199
-256.136	-200.000	0.069	0.546
-255.122	166.067	0.246	0.344
-254.107	-48.636	-0.205	0.097
-253.092	-200.000	-0.034	-0.294
-252.078	118.980	-0.093	-0.113
-251.063	22.671	0.254	-0.206
-250.049	322.453	0.198	-0.372
-249.034	632.213	-0.050	-0.125
-248.019	-177.725	0.207	-0.005
-247.005	-109.068	-0.224	0.047
-245.990	422.531	-0.041	0.087
-244.976	-93.818	0.077	-0.021
-243.961	-200.000	0.470	0.000
-242.946	-144.318	-0.230	0.021
-241.932	-200.000	0.018	-0.160
-240.917	739.702	-0.076	0.201
-239.903	355.819	-0.216	0.424
-238.888	-200.000	-0.025	0.174
-237.873	268.868	0.196	0.340
-236.859	-200.000	0.046	-0.276
-235.844	507.919	-0.059	0.136
-234.830	-57.795	0.183	0.079
-233.815	34.164	-0.029	0.025
-232.800	12.546	0.273	-0.207
-231.786	155.095	0.141	-0.192
-230.771	-164.064	0.278	-0.013
-229.757	800.000	-0.054	-0.193
-228.742	183.321	-0.148	-0.216
-227.727	128.784	0.069	-0.086
-226.713	78.656	0.181	-0.191
-225.698	6.581	0.296	0.217
-224.684	58.554	-0.150	0.145
-223.669	-200.000	0.031	-0.290
-222.655	-22.968	-0.167	0.100
-221.640	-200.000	0.010	-0.065
-220.625	131.852	-0.100	0.127
-219.611	-99.360	0.291	0.072
-218.596	76.019	-0.179	-0.187
-217.582	130.025	0.100	0.126
-216.567	2.398	0.345	0.246
-215.552	179.863	0.036	0.052
-214.538	-78.990	-0.164	0.055
-213.523	31.715	-0.095	0.081
-212.509	-65.076	0.055	0.022
-211.494	40.205	-0.062	0.055
-210.479	68.607	0.234	0.237
-209.465	58.745	-0.092	-0.089
-208.450	87.797	0.406	-0.443
-207.436	-116.134	-0.106	-0.019
-206.421	508.734	-0.067	0.154
-205.406	-104.078	0.081	-0.019
-204.392	-143.542	-0.093	-0.009
-203.377	437.760	0.175	0.376
-202.363	94.674	-0.257	0.287
-201.348	-3.971	0.190	-0.130
-200.333	-173.428	0.152	0.005
-199.319	679.910	0.081	-0.206
-198.304	134.142	-0.127	-0.162
-197.290	200.255	-0.101	0.153
-196.275	95.791	-0.028	0.032
-195.260	-42.811	-0.207	0.104
-194.246	196.983	0.091	0.137
-193.231	25.039	-0.291	0.238
-192.217	99.092	-0.195	0.221
-191.202	800.000	0.107	0.365
-190.187	58.555	0.230	-0.222
-189.173	800.000	0.089	-0.365
-188.158	-200.000	-0.025	-0.250
-187.144	-118.305	-0.046	0.008
-186.129	-200.000	0.025	-0.255
-185.114	226.892	-0.016	0.026
-184.100	-87.370	0.258	0.077
-183.085	-63.501	0.319	0.129
-182.071	479.716	-0.103	0.230
-181.056	72.599	-0.121	0.124
-180.042	262.513	0.165	0.281
-179.027	40.991	0.044	-0.039
-178.012	539.444	0.111	0.261
-176.998	-180.734	0.493	0.010
-175.983	-68.846	0.175	0.066
-174.969	-110.612	0.127	0.026
-173.954	-200.000	-0.040	0.198
-172.939	141.919	0.267	0.349
-171.925	-37.742	-0.262	0.137
-170.910	77.592	0.053	-0.056
-169.896	-80.732	0.107	-0.035
-168.881	-200.000	0.043	-0.388
-167.866	-46.400	0.404	-0.195
-166.852	-23.574	0.055	0.032
-165.837	-4.529	0.093	-0.063
-164.823	9.317	0.171	0.128
-163.808	87.647	-0.064	-0.070
-162.793	245.601	-0.082	-0.135
-161.779	-148.633	-0.414	0.033
-160.764	-67.324	0.096	-0.037
-159.750	216.136	0.047	-0.073
-158.735	99.330	0.205	0.233
-157.720	162.047	0.156	0.215
-156.706	-44.649	-0.139	0.068
-155.691	-200.000	0.026	-0.221
-154.677	-161.964	-0.238	0.012
-153.662	800.000	-0.057	-0.157
-152.647	-200.000	0.049	-0.326
-151.633	102.193	0.047	0.054
-150.618	-24.035	-0.134	-0.079
-149.604	-200.000	-0.009	0.185
-148.589	-200.000	-0.002	0.182
-147.574	1.204	0.086	-0.061
-146.560	-200.000	-0.094	-0.405
-145.545	374.124	-0.110	0.220
-144.531	800.000	-0.011	0.046
-143.516	289.785	-0.052	0.092
-142.502	-147.837	0.221	-0.018
-141.487	-42.848	-0.325	0.162
-140.472	670.933	0.090	0.230
-139.458	-59.935	0.207	0.087
-138.443	237.341	-0.079	0.129
-137.429	-133.167	-0.336	0.042
-136.414	-56.839	0.088	0.038
-135.399	-200.000	-0.008	0.154
-134.385	713.429	0.041	0.106
-133.370	-190.273	-0.214	-0.002
-132.356	-200.000	-0.027	0.234
-131.341	156.649	0.159	0.215
-130.326	87.886	0.147	-0.160
-129.312	-57.086	0.063	-0.027
-128.297	-55.139	0.154	0.068
-127.283	800.000	0.077	0.221
-126.268	-200.000	-0.029	0.206
-125.253	-112.629	-0.236	-0.046
-124.239	800.000	-0.137	0.374
-123.224	-108.728	0.130	-0.027
-122.210	377.168	-0.127	-0.255
-121.195	467.945	0.094	0.206
