DTS Sentinel unit serial number:	SN413079Multiplexer serial number:	ORYXHardware model number:	OX4-SRSoftware version number:	ORYX F/W v4.00 Oryx Data Collector v3.7.2.0data status	okinstallation	princeton_trtdifferential loss correction	single-endedforward channel	channel 1reverse channel	N/Adate	2019/09/14time	13:50:35forward acquisition time	60.00reverse acquisition time	0.00gamma	496.2192k internal	0.2294k external	0.2294temperature offset calibration	1.0084default loss term (dB/km)	0.3790temperature slope calibration	1.0000multiplexer offset coefficient	1.0000multiplexer slope coefficient	1.0000fibre end	0.00T internal ref (°C)	37.80T ext. ref 1 (°C)	4.97T ext. ref 2 (°C)	33.51length (m)	temperature (°C)	Stokes	anti-Stokes-747.200	93.408	0.108	-0.126
-746.185	-200.000	-0.020	0.353
-745.171	-29.348	-0.160	-0.093
-744.156	458.913	-0.127	0.288
-743.142	217.364	-0.250	-0.407
-742.127	16.981	0.342	0.277
-741.112	-65.963	-0.130	-0.053
-740.098	175.764	0.113	0.167
-739.083	-200.000	0.005	0.122
-738.069	800.000	-0.080	0.290
-737.054	-200.000	0.020	-0.174
-736.039	-78.321	0.121	0.042
-735.025	512.096	-0.103	0.245
-734.010	572.782	0.008	0.020
-732.996	24.270	-0.140	-0.118
-731.981	-27.949	-0.231	-0.137
-730.966	-23.648	-0.162	-0.099
-729.952	-40.838	0.199	0.105
-728.937	-77.121	-0.163	-0.058
-727.923	-12.643	0.146	-0.097
-726.908	95.356	-0.306	0.356
-725.894	232.038	-0.164	0.274
-724.879	-200.000	-0.409	-0.001
-723.864	-130.295	-0.275	0.038
-722.850	-200.000	-0.053	0.239
-721.835	654.459	0.083	-0.218
-720.821	-131.807	-0.088	0.012
-719.806	-54.270	-0.262	0.122
-718.791	137.574	-0.067	0.090
-717.777	109.707	0.100	-0.122
-716.762	305.015	-0.215	0.407
-715.748	-192.912	0.529	-0.005
-714.733	800.000	-0.020	-0.074
-713.718	-106.574	-0.044	-0.010
-712.704	-145.919	0.096	0.009
-711.689	41.817	0.181	0.168
-710.675	-63.450	-0.245	0.103
-709.660	-143.375	-0.287	-0.028
-708.645	-79.744	-0.073	-0.025
-707.631	-53.368	0.156	0.073
-706.616	-88.054	-0.324	0.099
-705.602	-13.771	-0.255	0.168
-704.587	-43.366	0.030	0.016
-703.572	-156.522	0.103	0.007
-702.558	-117.385	-0.253	0.047
-701.543	52.552	0.027	0.026
-700.529	800.000	0.097	0.297
-699.514	304.151	-0.018	-0.034
-698.499	116.538	0.213	-0.266
-697.485	128.718	-0.117	-0.152
-696.470	26.432	0.084	-0.072
-695.456	221.936	-0.126	0.206
-694.441	65.173	0.306	-0.316
-693.426	14.140	0.128	0.102
-692.412	-200.000	-0.025	-0.149
-691.397	12.353	-0.121	-0.095
-690.383	178.565	-0.034	-0.050
-689.368	-132.581	-0.163	-0.021
-688.354	-131.071	0.114	0.016
-687.339	-53.111	-0.160	-0.075
-686.324	-84.562	0.329	-0.106
-685.310	-169.614	0.088	-0.003
-684.295	585.345	-0.048	-0.121
-683.281	422.019	0.178	0.390
-682.266	-24.772	-0.263	0.160
-681.251	-200.000	0.003	0.056
-680.237	-93.483	0.103	-0.029
-679.222	-39.189	-0.200	0.107
-678.208	-194.962	-0.097	-0.001
-677.193	367.544	-0.086	0.176
-676.178	14.349	-0.063	-0.050
-675.164	14.447	0.261	0.207
-674.149	60.717	0.097	-0.098
-673.135	-200.000	-0.000	0.109
-672.120	-200.000	0.004	0.365
-671.105	800.000	0.036	-0.149
-670.091	349.009	-0.063	0.127
-669.076	800.000	0.089	-0.302
-668.062	516.392	0.062	0.147
-667.047	112.782	-0.128	0.157
-666.032	131.981	-0.378	0.496
-665.018	130.025	-0.098	0.128
-664.003	65.772	-0.055	-0.057
-662.989	-180.073	-0.172	0.004
-661.974	223.877	-0.095	0.157
-660.959	-146.951	0.202	0.018
-659.945	-200.000	-0.002	-0.089
-658.930	-15.118	-0.089	0.058
-657.916	-200.000	-0.006	-0.077
-656.901	-85.674	-0.448	0.142
-655.886	-36.014	-0.197	0.108
-654.872	-149.615	0.173	-0.014
-653.857	35.508	-0.216	-0.193
-652.843	4.108	-0.088	-0.065
-651.828	3.843	0.057	-0.043
-650.814	-71.172	0.196	-0.075
-649.799	26.943	-0.082	-0.070
-648.784	-200.000	-0.003	-0.326
-647.770	532.902	-0.028	0.068
-646.755	251.265	-0.096	-0.166
-645.741	-80.200	-0.113	-0.039
-644.726	349.664	0.048	0.097
-643.711	56.727	0.110	0.109
-642.697	800.000	0.035	-0.102
-641.682	-52.465	-0.249	0.117
-640.668	-20.467	0.112	-0.070
-639.653	-55.613	-0.143	0.065
-638.638	-200.000	0.024	-0.262
-637.624	-6.537	0.310	0.215
-636.609	43.285	0.058	0.054
-635.595	109.281	0.245	0.299
-634.580	-138.655	0.161	0.018
-633.565	-200.000	-0.064	-0.381
-632.551	-16.966	0.077	0.050
-631.536	3.397	0.048	-0.035
-630.522	-200.000	0.001	-0.126
-629.507	530.953	0.123	-0.296
-628.492	-200.000	0.032	-0.242
-627.478	272.707	0.148	-0.265
-626.463	-113.054	-0.154	0.031
-625.449	-90.209	0.295	0.087
-624.434	272.962	0.211	-0.378
-623.419	87.253	0.142	-0.160
-622.405	800.000	0.067	-0.190
-621.390	179.527	-0.178	-0.265
-620.376	74.260	-0.202	-0.216
-619.361	216.258	0.140	-0.227
-618.346	-200.000	0.006	-0.116
-617.332	-115.513	-0.182	0.035
-616.317	506.350	0.051	-0.121
-615.303	800.000	-0.020	-0.058
-614.288	-177.676	0.193	0.005
-613.273	-141.670	-0.216	0.022
-612.259	-87.791	0.162	-0.050
-611.244	-140.329	0.106	-0.011
-610.230	56.313	-0.019	-0.019
-609.215	-95.529	0.226	-0.062
-608.201	-53.534	0.250	-0.116
-607.186	71.873	-0.384	-0.406
-606.171	-155.913	-0.292	0.019
-605.157	42.725	-0.251	0.233
-604.142	73.042	0.138	-0.146
-603.128	76.243	-0.041	0.044
-602.113	-200.000	0.035	-0.182
-601.098	-116.889	-0.208	0.039
-600.084	254.656	0.067	0.116
-599.069	107.775	-0.105	-0.127
-598.055	-200.000	0.002	0.115
-597.040	-200.000	0.042	-0.247
-596.025	-20.396	-0.100	0.062
-595.011	-64.937	0.335	0.138
-593.996	0.062	-0.154	-0.112
-592.982	53.061	0.232	0.226
-591.967	433.659	0.099	0.218
-590.952	142.826	0.172	0.232
-589.938	216.744	0.123	-0.198
-588.923	-200.000	-0.005	-0.056
-587.909	-200.000	0.001	0.085
-586.894	-200.000	0.021	-0.130
-585.879	-167.569	-0.242	0.010
-584.865	-147.035	-0.268	-0.023
-583.850	404.853	0.029	0.062
-582.836	-200.000	-0.067	0.513
-581.821	-67.123	-0.259	0.104
-580.806	-85.799	-0.214	-0.067
-579.792	-23.409	0.122	0.075
-578.777	480.630	0.061	0.140
-577.763	-200.000	-0.024	0.630
-576.748	322.373	0.076	0.146
-575.733	329.961	-0.068	0.132
-574.719	-17.755	-0.362	0.231
-573.704	-200.000	-0.065	0.301
-572.690	-125.131	-0.250	-0.039
-571.675	-22.613	0.107	0.066
-570.661	-82.686	-0.186	0.061
-569.646	-157.587	0.129	-0.008
-568.631	137.016	-0.197	0.262
-567.617	800.000	-0.077	-0.266
-566.602	-41.053	-0.325	-0.170
-565.588	50.931	-0.167	-0.161
-564.573	-200.000	-0.004	-0.161
-563.558	-200.000	-0.083	0.453
-562.544	168.707	-0.092	0.134
-561.529	-183.192	-0.107	-0.002
-560.515	-114.162	0.084	0.016
-559.500	-200.000	-0.011	0.141
-558.485	-200.000	-0.065	-0.300
-557.471	-40.229	0.134	-0.071
-556.456	-88.781	-0.220	-0.066
-555.442	-46.950	-0.308	0.153
-554.427	226.295	-0.227	-0.373
-553.412	74.359	0.320	-0.341
-552.398	247.664	-0.077	-0.132
-551.383	38.044	0.109	0.098
-550.369	496.186	0.238	0.556
-549.354	-89.860	-0.260	0.077
-548.339	533.269	0.018	0.044
-547.325	-134.279	-0.200	0.025
-546.310	96.380	-0.121	0.140
-545.296	-15.007	0.166	0.108
-544.281	-90.156	-0.536	-0.158
-543.266	11.692	-0.194	0.151
-542.252	-200.000	0.002	0.143
-541.237	244.614	0.081	0.138
-540.223	59.816	0.212	-0.212
-539.208	-200.000	-0.010	-0.073
-538.193	-200.000	-0.011	0.145
-537.179	58.576	-0.189	-0.188
-536.164	-155.634	-0.305	0.020
-535.150	-81.845	-0.198	0.066
-534.135	-86.980	-0.393	0.122
-533.121	113.420	-0.055	0.068
-532.106	-200.000	-0.000	-0.018
-531.091	-171.159	0.220	-0.008
-530.077	345.819	-0.060	0.119
-529.062	185.995	-0.119	0.179
-528.048	-4.086	-0.056	0.040
-527.033	15.759	-0.080	-0.064
-526.018	79.706	0.270	-0.294
-525.004	-40.821	-0.269	0.141
-523.989	31.641	-0.177	0.155
-522.975	666.500	0.094	0.246
-521.960	-84.727	-0.166	0.053
-520.945	-63.953	0.195	0.081
-519.931	63.751	0.139	-0.141
-518.916	-77.280	-0.409	0.144
-517.902	-79.705	0.273	-0.093
-516.887	176.311	0.230	-0.338
-515.872	271.171	0.034	0.061
-514.858	-92.407	0.319	0.091
-513.843	-61.886	-0.274	-0.116
-512.829	800.000	-0.010	-0.031
-511.814	37.001	0.075	-0.067
-510.799	213.860	0.028	0.044
-509.785	-200.000	-0.008	-0.064
-508.770	-75.433	0.198	-0.071
-507.756	-200.000	-0.070	-0.420
-506.741	-3.066	0.135	-0.095
-505.726	-169.028	0.098	0.004
-504.712	155.293	-0.030	-0.041
-503.697	-139.083	-0.303	0.033
-502.683	800.000	-0.088	0.270
-501.668	-89.799	-0.233	-0.069
-500.653	-139.712	-0.185	-0.020
-499.639	-152.399	0.422	-0.031
-498.624	-8.705	-0.250	-0.170
-497.610	800.000	0.118	-0.448
-496.595	-200.000	-0.007	-0.293
-495.581	160.659	-0.146	-0.207
-494.566	-107.914	-0.219	-0.048
-493.551	68.598	-0.250	0.260
-492.537	-79.752	-0.266	0.091
-491.522	800.000	0.022	0.087
-490.508	800.000	0.063	-0.203
-489.493	-173.523	-0.248	0.008
-488.478	-197.435	0.162	-0.001
-487.464	-200.000	0.023	-0.351
-486.449	442.201	0.066	-0.145
-485.435	-95.465	-0.205	0.056
-484.420	293.102	0.005	0.009
-483.405	-110.041	-0.020	-0.004
-482.391	-12.454	0.244	0.161
-481.376	44.628	-0.095	-0.089
-480.362	36.752	-0.153	-0.137
-479.347	133.865	0.149	0.195
-478.332	594.666	0.026	0.064
-477.318	124.451	-0.160	0.204
-476.303	141.469	-0.206	-0.277
-475.289	121.927	-0.080	0.101
-474.274	9.067	-0.195	-0.149
-473.259	-67.030	-0.184	-0.074
-472.245	-49.242	-0.238	-0.115
-471.230	-101.564	0.104	-0.026
-470.216	-117.477	-0.061	-0.011
-469.201	-116.713	-0.161	-0.030
-468.186	72.185	-0.143	-0.151
-467.172	800.000	-0.058	0.180
-466.157	73.155	0.076	0.080
-465.143	800.000	-0.030	-0.088
-464.128	-200.000	-0.086	-0.393
-463.113	-200.000	0.161	0.000
-462.099	716.123	-0.100	0.268
-461.084	800.000	-0.026	-0.092
-460.070	-89.449	0.268	-0.080
-459.055	117.148	-0.029	-0.036
-458.040	382.609	0.139	-0.288
-457.026	-68.324	-0.265	0.104
-456.011	-200.000	0.023	0.161
-454.997	-125.298	-0.368	0.057
-453.982	-200.000	-0.060	0.317
-452.968	-189.046	-0.405	-0.005
-451.953	-200.000	-0.032	0.327
-450.938	-39.550	-0.386	0.204
-449.924	121.694	0.065	0.082
-448.909	-91.399	0.218	-0.063
-447.895	-200.000	0.009	0.044
-446.880	800.000	0.033	0.144
-445.865	9.596	-0.039	0.030
-444.851	-47.352	0.176	0.086
-443.836	-79.937	-0.169	0.057
-442.822	131.614	0.184	0.239
-441.807	-50.097	0.163	-0.078
-440.792	-143.719	0.268	-0.026
-439.778	83.686	0.023	0.025
-438.763	233.167	0.182	-0.302
-437.749	-200.000	0.002	0.269
-436.734	-114.311	-0.237	0.046
-435.719	-107.736	-0.162	-0.036
-434.705	-116.207	0.089	-0.017
-433.690	-156.081	-0.204	-0.013
-432.676	267.659	0.069	-0.121
-431.661	-200.000	0.003	-0.204
-430.646	-200.000	0.047	-0.258
-429.632	-29.389	0.236	0.136
-428.617	-70.700	0.019	0.007
-427.603	-200.000	-0.051	-0.474
-426.588	-114.786	0.113	-0.022
-425.573	42.847	-0.140	0.129
-424.559	43.882	0.166	-0.154
-423.544	40.238	0.148	-0.135
-422.530	-111.079	-0.066	-0.014
-421.515	-149.675	0.175	-0.014
-420.500	46.918	0.209	0.196
-419.486	800.000	-0.071	-0.233
-418.471	-106.514	0.431	-0.097
-417.457	631.130	-0.063	-0.161
-416.442	-80.349	0.145	0.049
-415.428	-164.956	-0.154	-0.007
-414.413	-200.000	-0.035	-0.268
-413.398	-114.381	0.165	0.032
-412.384	800.000	-0.069	-0.237
-411.369	-30.144	0.136	-0.078
-410.355	17.441	0.106	-0.085
-409.340	584.960	-0.039	0.098
-408.325	-98.702	0.410	0.105
-407.311	-200.000	0.020	-0.409
-406.296	-22.098	-0.155	0.095
-405.282	19.298	0.237	0.192
-404.267	-40.035	0.356	-0.187
-403.252	-200.000	-0.022	-0.104
-402.238	35.134	0.232	-0.205
-401.223	-190.294	-0.162	0.002
-400.209	124.289	-0.057	-0.072
-399.194	-41.542	-0.255	-0.132
-398.179	-200.000	0.045	0.221
-397.165	800.000	0.121	0.368
-396.150	-200.000	0.002	0.302
-395.136	-27.263	0.107	-0.063
-394.121	67.283	-0.077	0.080
-393.106	-63.106	0.194	0.081
-392.092	-200.000	0.007	0.098
-391.077	-49.047	0.227	-0.109
-390.063	245.176	0.067	0.113
-389.048	-25.625	0.161	0.096
-388.033	800.000	0.050	-0.153
-387.019	145.117	0.050	0.067
-386.004	218.024	0.077	0.123
-384.990	-181.131	-0.126	0.003
-383.975	156.862	-0.042	0.059
-382.960	800.000	-0.003	0.014
-381.946	323.305	-0.067	0.128
-380.931	-200.000	0.059	0.382
-379.917	-200.000	0.003	0.049
-378.902	-128.657	-0.109	-0.016
-377.888	778.009	-0.089	-0.244
-376.873	-200.000	-0.055	-0.285
-375.858	-98.234	-0.238	0.062
-374.844	-200.000	0.010	0.269
-373.829	-119.350	-0.350	0.061
-372.815	100.961	-0.197	-0.231
-371.800	-200.000	0.041	-0.450
-370.785	800.000	-0.016	0.048
-369.771	-99.654	0.123	-0.031
-368.756	19.067	-0.170	-0.137
-367.742	61.450	-0.233	0.233
-366.727	-200.000	-0.005	-0.051
-365.712	800.000	-0.025	-0.072
-364.698	-82.559	0.082	-0.027
-363.683	800.000	-0.077	-0.289
-362.669	254.550	0.044	0.075
-361.654	227.683	-0.090	-0.148
-360.639	762.036	-0.068	0.185
-359.625	-66.967	-0.107	0.043
-358.610	-51.009	-0.208	-0.099
-357.596	303.666	0.140	-0.260
-356.581	89.234	0.031	0.035
-355.566	434.523	0.120	0.263
-354.552	164.796	-0.078	0.111
-353.537	-4.826	-0.081	0.056
-352.523	-60.905	-0.243	-0.103
-351.508	13.847	0.125	-0.098
-350.493	189.343	-0.026	0.040
-349.479	522.298	0.033	0.079
-348.464	-79.981	0.380	-0.128
-347.450	-149.055	-0.200	-0.016
-346.435	-21.033	0.124	0.076
-345.420	47.044	0.138	0.130
-344.406	-153.504	0.242	-0.017
-343.391	-138.916	0.368	-0.040
-342.377	225.255	0.241	-0.393
-341.362	-76.401	0.244	-0.086
-340.348	473.066	-0.133	0.301
-339.333	172.428	-0.050	-0.073
-338.318	217.900	0.047	-0.076
-337.304	-151.239	-0.071	-0.005
-336.289	-105.100	-0.297	-0.068
-335.275	-41.329	0.350	-0.181
-334.260	496.280	0.057	-0.131
-333.245	-200.000	0.005	0.042
-332.231	-123.048	0.192	0.031
-331.216	-73.541	0.144	-0.053
-330.202	357.270	-0.125	0.251
-329.187	-80.635	0.338	-0.113
-328.172	5.975	-0.108	0.081
-327.158	800.000	0.035	-0.153
-326.143	205.862	-0.055	-0.086
-325.129	-200.000	-0.030	-0.197
-324.114	-73.567	-0.453	0.166
-323.099	241.212	-0.048	0.080
-322.085	33.280	-0.146	-0.128
-321.070	-175.980	-0.240	-0.006
-320.056	733.688	0.122	0.329
-319.041	-200.000	0.010	-0.118
-318.026	92.180	-0.243	0.276
-317.012	-190.524	-0.367	0.004
-315.997	-45.704	0.023	-0.011
-314.983	22.113	0.202	-0.166
-313.968	-4.970	-0.301	-0.208
-312.953	481.417	0.064	-0.145
-311.939	-13.672	0.196	0.127
-310.924	36.331	-0.108	-0.096
-309.910	-167.771	-0.228	-0.009
-308.895	136.095	-0.187	0.245
-307.880	800.000	-0.069	-0.288
-306.866	-99.254	-0.112	-0.028
-305.851	333.695	0.038	0.073
-304.837	-200.000	-0.011	0.097
-303.822	800.000	-0.055	0.178
-302.807	-200.000	0.008	0.068
-301.793	731.562	-0.053	-0.142
-300.778	800.000	0.030	0.116
-299.764	143.224	0.115	0.153
-298.749	20.267	0.103	0.084
-297.735	-200.000	0.034	0.231
-296.720	-179.342	-0.534	0.012
-295.705	-82.342	0.203	-0.066
-294.691	-120.356	0.101	0.017
-293.676	227.561	0.131	0.215
-292.662	253.482	-0.111	0.190
-291.647	-200.000	0.012	-0.081
-290.632	800.000	-0.137	-0.399
-289.618	-200.000	0.001	0.211
-288.603	116.795	0.113	0.139
-287.589	345.926	0.182	-0.359
-286.574	-74.359	0.170	0.062
-285.559	9.743	0.213	0.162
-284.545	58.056	-0.233	-0.229
-283.530	800.000	-0.029	-0.090
-282.516	-133.754	-0.248	-0.031
-281.501	-77.825	0.213	-0.074
-280.486	95.468	0.069	-0.079
-279.472	-200.000	-0.018	-0.087
-278.457	-108.232	0.299	-0.065
-277.443	-38.040	-0.200	0.106
-276.428	-30.884	0.166	0.094
-275.413	23.704	0.258	-0.214
-274.399	-164.369	0.201	-0.009
-273.384	-73.472	0.234	-0.086
-272.370	-200.000	0.049	-0.249
-271.355	-20.100	0.156	0.097
-270.340	-57.721	-0.110	-0.048
-269.326	-26.069	0.068	-0.040
-268.311	-25.460	0.199	0.118
-267.297	29.052	0.134	0.114
-266.282	-24.589	0.052	-0.031
-265.267	94.423	0.215	-0.245
-264.253	-200.000	-0.023	0.222
-263.238	172.324	0.019	0.028
-262.224	20.514	0.130	-0.105
-261.209	365.520	-0.160	-0.324
-260.195	275.874	0.108	-0.192
-259.180	-91.640	-0.099	-0.028
-258.165	-87.194	-0.122	0.037
-257.151	-200.000	-0.040	0.186
-256.136	10.047	0.285	0.217
-255.122	-200.000	0.041	0.356
-254.107	172.732	0.169	0.243
-253.092	800.000	0.068	0.209
-252.078	-200.000	-0.040	0.402
-251.063	-78.080	0.276	0.095
-250.049	-200.000	0.002	0.163
-249.034	-74.673	0.237	0.085
-248.019	-123.283	-0.281	0.045
-247.005	-64.972	0.099	0.040
-245.990	49.776	0.144	0.136
-244.976	-56.741	0.089	0.039
-243.961	-200.000	-0.016	0.085
-242.946	-200.000	-0.078	-0.416
-241.932	-161.076	-0.026	-0.001
-240.917	-44.958	-0.116	0.058
-239.903	-200.000	0.018	-0.203
-238.888	-29.033	0.041	-0.024
-237.873	520.975	-0.080	-0.189
-236.859	-56.576	0.278	-0.123
-235.844	-114.420	0.081	0.016
-234.830	-200.000	-0.030	0.349
-233.815	-87.584	0.269	0.081
-232.800	-200.000	-0.079	-0.507
-231.786	-36.461	-0.261	-0.141
-230.771	800.000	0.049	0.161
-229.757	-20.778	0.055	-0.034
-228.742	320.208	0.084	-0.161
-227.727	62.032	0.189	0.189
-226.713	-200.000	-0.003	-0.417
-225.698	-44.056	0.014	0.007
-224.684	518.104	-0.055	0.130
-223.669	164.594	0.195	0.276
-222.655	508.994	0.067	-0.157
-221.640	-123.812	-0.199	0.031
-220.625	-200.000	0.006	0.058
-219.611	300.983	0.291	0.538
-218.596	-94.312	-0.042	0.012
-217.582	-106.146	0.284	0.064
-216.567	18.372	0.125	0.100
-215.552	124.174	0.072	-0.090
-214.538	800.000	-0.044	-0.131
-213.523	-200.000	-0.100	-0.495
-212.509	-200.000	0.044	-0.503
-211.494	352.219	0.116	-0.230
-210.479	-157.847	0.040	0.002
-209.465	62.510	0.271	0.271
-208.450	-37.397	-0.252	0.135
-207.436	182.586	0.171	0.253
-206.421	110.859	0.239	0.288
-205.406	800.000	-0.054	-0.172
-204.392	-39.492	0.160	-0.084
-203.377	24.935	-0.112	-0.093
-202.363	-53.470	0.119	-0.054
-201.348	800.000	0.016	-0.062
-200.333	182.781	-0.107	-0.159
-199.319	-194.598	0.227	-0.002
-198.304	-51.390	-0.096	-0.045
-197.290	-200.000	-0.032	0.267
-196.275	504.875	0.128	0.296
-195.260	46.950	-0.049	0.046
-194.246	-100.716	-0.054	-0.013
-193.231	-50.223	-0.261	-0.124
-192.217	800.000	0.094	-0.267
-191.202	-94.575	-0.202	0.055
-190.187	340.157	-0.228	0.445
-189.173	-200.000	-0.026	-0.314
-188.158	12.687	-0.080	0.062
-187.144	-32.386	0.092	-0.051
-186.129	-114.915	0.319	0.061
-185.114	800.000	0.102	0.364
-184.100	97.222	0.155	-0.178
-183.085	-200.000	0.016	-0.187
-182.071	83.407	-0.072	0.079
-181.056	257.277	-0.074	0.127
-180.042	-117.355	-0.203	0.037
-179.027	78.850	-0.157	-0.168
-178.012	661.711	0.088	0.228
-176.998	153.852	0.134	0.183
-175.983	29.177	-0.348	0.295
-174.969	-47.224	0.122	-0.059
-173.954	800.000	0.085	0.313
-172.939	-24.386	0.406	0.242
-171.925	-34.541	-0.037	-0.020
-170.910	-55.080	-0.115	-0.052
-169.896	-200.000	0.001	0.018
-168.881	75.807	0.232	0.245
-167.866	-5.734	-0.184	-0.126
-166.852	-200.000	0.033	0.208
-165.837	-75.874	-0.094	-0.033
-164.823	85.865	0.076	0.083
-163.808	-83.457	-0.202	-0.065
-162.793	168.450	0.213	0.303
-161.779	-200.000	0.050	0.284
-160.764	167.190	0.124	0.176
-159.750	-200.000	-0.076	0.346
-158.735	289.268	-0.127	0.230
-157.720	-200.000	0.055	0.353
-156.706	-200.000	0.029	0.343
-155.691	53.047	0.241	-0.230
-154.677	800.000	0.121	-0.340
-153.662	-58.746	-0.322	0.139
-152.647	-166.310	0.085	-0.004
-151.633	244.618	-0.040	-0.067
-150.618	800.000	0.038	-0.114
-149.604	800.000	0.118	0.375
-148.589	-103.473	-0.226	-0.053
-147.574	22.895	-0.090	-0.073
-146.560	278.035	0.115	-0.204
-145.545	31.992	0.231	-0.199
-144.531	-68.765	0.060	0.023
-143.516	272.113	0.257	0.453
-142.502	-95.684	-0.326	-0.087
-141.487	800.000	-0.065	0.268
-140.472	-140.028	-0.017	0.002
-139.458	-170.650	0.141	-0.005
-138.443	800.000	-0.029	0.084
-137.429	-110.157	0.135	0.028
-136.414	-54.185	-0.208	-0.094
-135.399	-200.000	0.070	0.397
-134.385	134.944	-0.133	-0.172
-133.370	-94.151	-0.116	-0.032
-132.356	800.000	0.045	0.179
-131.341	72.887	0.308	0.322
-130.326	74.589	-0.089	0.094
-129.312	-70.713	0.322	0.121
-128.297	660.625	0.169	0.435
-127.283	-31.548	0.221	0.124
-126.268	-98.948	0.238	0.060
-125.253	-137.138	-0.245	-0.028
-124.239	-200.000	-0.057	-0.333
-123.224	-23.987	-0.367	-0.219
-122.210	116.018	0.213	0.260
-121.195	104.471	0.045	0.053
