DTS Sentinel unit serial number:	SN413079Multiplexer serial number:	ORYXHardware model number:	OX4-SRSoftware version number:	ORYX F/W v4.00 Oryx Data Collector v3.7.2.0data status	okinstallation	princeton_trtdifferential loss correction	single-endedforward channel	channel 1reverse channel	N/Adate	2019/09/17time	23:10:35forward acquisition time	60.00reverse acquisition time	0.00gamma	496.2192k internal	0.2340k external	0.2340temperature offset calibration	0.9977default loss term (dB/km)	0.3790temperature slope calibration	1.0000multiplexer offset coefficient	1.0000multiplexer slope coefficient	1.0000fibre end	0.00T internal ref (°C)	24.61T ext. ref 1 (°C)	0.17T ext. ref 2 (°C)	17.67length (m)	temperature (°C)	Stokes	anti-Stokes-747.200	-79.735	0.327	-0.111
-746.185	338.482	-0.203	0.396
-745.171	-200.000	0.038	-0.000
-744.156	-16.231	0.197	0.125
-743.142	22.879	-0.064	-0.053
-742.127	72.192	-0.261	0.273
-741.112	147.677	-0.256	0.346
-740.098	71.487	-0.140	0.145
-739.083	-200.000	-0.152	0.000
-738.069	-200.000	-0.043	0.240
-737.054	800.000	0.068	-0.260
-736.039	-141.865	-0.674	-0.068
-735.025	-163.609	-0.056	0.003
-734.010	55.767	-0.180	-0.175
-732.996	-60.502	-0.297	-0.126
-731.981	-200.000	0.012	0.205
-730.966	124.800	0.206	-0.260
-729.952	93.999	-0.080	-0.091
-728.937	92.363	0.109	0.123
-727.923	-97.096	-0.255	0.067
-726.908	-12.388	0.142	-0.093
-725.894	-72.105	0.096	-0.036
-724.879	-36.174	0.106	0.057
-723.864	186.908	-0.139	-0.207
-722.850	-40.863	-0.239	-0.124
-721.835	-111.933	-0.352	-0.071
-720.821	800.000	0.014	0.044
-719.806	-148.219	0.150	-0.012
-718.791	-200.000	-0.048	0.231
-717.777	-2.732	0.211	-0.148
-716.762	-95.332	-0.465	0.125
-715.748	86.613	-0.199	0.220
-714.733	-170.077	-0.408	0.015
-713.718	-150.104	-0.230	-0.018
-712.704	49.879	-0.163	-0.154
-711.689	285.043	0.172	0.310
-710.675	-200.000	0.051	-0.363
-709.660	-189.907	-0.099	0.001
-708.645	-200.000	-0.042	-0.184
-707.631	-25.042	-0.150	0.089
-706.616	800.000	0.045	-0.168
-705.602	141.155	-0.255	-0.338
-704.587	-200.000	0.091	-0.438
-703.572	10.425	0.163	0.124
-702.558	-13.153	0.291	0.189
-701.543	111.726	-0.189	0.229
-700.529	-200.000	0.013	-0.123
-699.514	-200.000	0.004	0.063
-698.499	271.556	-0.202	0.357
-697.485	-84.569	0.236	-0.075
-696.470	-109.156	-0.228	-0.048
-695.456	-123.800	0.278	-0.044
-694.441	-108.433	-0.362	0.078
-693.426	-200.000	0.059	0.397
-692.412	338.734	0.061	0.119
-691.397	361.035	-0.068	0.136
-690.383	-90.865	-0.181	-0.052
-689.368	-200.000	-0.026	0.186
-688.354	120.675	0.047	0.059
-687.339	84.810	0.207	-0.227
-686.324	343.679	-0.105	-0.205
-685.310	26.557	0.122	-0.102
-684.295	-184.864	-0.335	0.005
-683.281	800.000	-0.064	-0.251
-682.266	-128.015	-0.232	0.033
-681.251	-83.303	-0.131	0.042
-680.237	255.428	0.072	0.124
-679.222	-63.585	0.113	-0.046
-678.208	-200.000	0.018	0.116
-677.193	-111.173	0.098	-0.020
-676.178	132.290	-0.166	-0.214
-675.164	73.134	-0.171	-0.179
-674.149	-118.764	0.210	-0.037
-673.135	-94.025	0.152	0.042
-672.120	-126.786	0.433	-0.064
-671.105	-77.136	-0.129	0.045
-670.091	800.000	0.017	0.058
-669.076	-58.764	-0.080	-0.035
-668.062	36.924	-0.064	0.056
-667.047	-200.000	-0.017	-0.113
-666.032	-53.822	0.141	0.064
-665.018	-18.866	0.235	0.146
-664.003	601.287	-0.125	-0.310
-662.989	408.018	0.148	-0.312
-661.974	724.103	0.061	-0.163
-660.959	-198.660	0.119	-0.001
-659.945	-30.638	-0.294	0.166
-658.930	-2.169	0.065	0.046
-657.916	-123.915	-0.097	-0.015
-656.901	-125.287	0.122	-0.019
-655.886	-34.723	-0.385	-0.211
-654.872	800.000	0.031	-0.107
-653.857	-200.000	-0.074	0.489
-652.843	12.370	0.156	0.120
-651.828	-107.324	-0.131	0.029
-650.814	-170.225	0.099	-0.003
-649.799	-200.000	0.058	-0.385
-648.784	123.933	-0.240	-0.301
-647.770	502.112	0.170	-0.393
-646.755	21.312	0.141	-0.115
-645.741	0.852	-0.279	0.199
-644.726	-126.085	-0.107	-0.016
-643.711	-200.000	0.112	0.530
-642.697	83.683	0.153	0.166
-641.682	-200.000	0.030	-0.168
-640.668	36.307	0.116	0.102
-639.653	3.744	0.119	0.087
-638.638	-200.000	0.023	-0.329
-637.624	47.985	0.068	0.064
-636.609	68.183	0.152	0.155
-635.595	-111.687	0.191	0.039
-634.580	-200.000	-0.037	-0.179
-633.565	-161.842	-0.288	-0.015
-632.551	346.734	0.129	0.254
-631.536	-116.821	0.114	-0.021
-630.522	-80.093	-0.247	0.083
-629.507	409.298	-0.012	0.024
-628.492	800.000	0.063	0.264
-627.478	-200.000	-0.046	-0.342
-626.463	800.000	-0.094	-0.300
-625.449	548.982	-0.096	-0.230
-624.434	-31.087	-0.107	0.060
-623.419	-105.514	0.061	-0.014
-622.405	206.178	-0.104	0.161
-621.390	20.275	-0.279	-0.225
-620.376	-51.598	0.517	0.240
-619.361	28.598	-0.188	0.158
-618.346	78.958	-0.147	0.157
-617.332	800.000	-0.016	0.068
-616.317	-37.622	-0.105	-0.056
-615.303	-138.518	-0.226	0.025
-614.288	391.601	0.037	-0.077
-613.273	-0.907	-0.079	-0.055
-612.259	226.667	-0.272	-0.440
-611.244	100.115	0.044	-0.051
-610.230	27.853	-0.128	-0.108
-609.215	112.871	0.114	0.137
-608.201	-83.172	-0.214	0.069
-607.186	800.000	-0.068	0.266
-606.171	-84.140	-0.335	0.106
-605.157	8.363	0.155	0.116
-604.142	123.380	0.076	-0.096
-603.128	532.316	0.076	0.178
-602.113	218.632	0.121	0.192
-601.098	-52.801	-0.169	0.078
-600.084	-48.985	-0.129	-0.062
-599.069	800.000	0.021	0.060
-598.055	185.270	-0.039	-0.057
-597.040	-148.741	-0.420	0.034
-596.025	-2.430	-0.188	-0.131
-595.011	70.377	0.280	-0.288
-593.996	123.441	-0.108	0.135
-592.982	800.000	-0.141	0.461
-591.967	-121.302	-0.167	-0.028
-590.952	-200.000	0.031	-0.168
-589.938	336.375	-0.134	-0.258
-588.923	-13.624	-0.122	0.079
-587.909	56.465	0.078	0.075
-586.894	268.969	0.085	0.149
-585.879	611.708	-0.073	-0.181
-584.865	128.847	0.051	-0.065
-583.850	-200.000	0.000	-0.016
-582.836	-104.772	0.160	-0.037
-581.821	90.622	0.215	0.240
-580.806	343.712	0.021	-0.042
-579.792	-21.922	0.187	-0.113
-578.777	-51.045	-0.141	-0.066
-577.763	346.458	0.223	0.437
-576.748	335.184	0.100	-0.193
-575.733	66.597	0.054	-0.054
-574.719	49.019	-0.181	0.169
-573.704	-200.000	-0.010	0.398
-572.690	51.123	-0.229	-0.216
-571.675	-46.251	-0.118	0.058
-570.661	-200.000	0.004	0.245
-569.646	-200.000	-0.040	0.197
-568.631	92.485	-0.124	-0.139
-567.617	552.141	0.122	0.292
-566.602	-98.657	-0.620	-0.157
-565.588	56.462	-0.143	0.138
-564.573	185.223	-0.053	0.078
-563.558	315.679	0.032	0.060
-562.544	263.529	-0.174	0.300
-561.529	113.221	-0.275	-0.332
-560.515	418.233	0.114	-0.243
-559.500	-135.518	-0.187	-0.022
-558.485	596.844	0.120	-0.297
-557.471	-60.523	-0.148	0.063
-556.456	-107.674	-0.252	-0.055
-555.442	156.247	-0.040	-0.054
-554.427	33.043	0.140	-0.120
-553.412	414.643	0.144	-0.306
-552.398	209.753	-0.201	-0.313
-551.383	88.342	0.293	0.324
-550.369	-200.000	-0.025	0.155
-549.354	-200.000	-0.007	0.167
-548.339	-91.627	-0.274	-0.078
-547.325	175.805	-0.173	0.249
-546.310	800.000	0.077	0.252
-545.296	-137.998	-0.245	0.027
-544.281	96.629	0.083	0.094
-543.266	287.895	-0.188	-0.339
-542.252	-200.000	0.045	0.531
-541.237	12.856	0.312	0.240
-540.223	800.000	0.051	-0.198
-539.208	800.000	0.071	-0.301
-538.193	14.300	-0.080	0.062
-537.179	-28.628	-0.170	0.097
-536.164	186.443	-0.056	-0.083
-535.150	-52.852	0.498	0.228
-534.135	132.533	-0.139	-0.178
-533.121	-107.482	0.059	-0.013
-532.106	800.000	0.058	0.184
-531.091	-7.199	0.091	0.062
-530.077	-84.410	-0.047	0.015
-529.062	800.000	-0.038	0.120
-528.048	-146.204	0.042	0.004
-527.033	-112.326	-0.124	-0.025
-526.018	78.711	-0.097	0.103
-525.004	-200.000	-0.012	0.084
-523.989	-200.000	-0.007	-0.161
-522.975	-68.138	-0.223	-0.086
-521.960	128.939	-0.236	-0.300
-520.945	14.487	-0.169	0.131
-519.931	-28.277	0.206	0.118
-518.916	106.116	0.264	-0.311
-517.902	-200.000	-0.075	-0.599
-516.887	-75.716	-0.134	0.047
-515.872	86.454	0.333	-0.364
-514.858	-86.988	0.404	-0.122
-513.843	-49.721	-0.320	-0.151
-512.829	224.827	0.170	-0.274
-511.814	387.315	-0.112	-0.229
-510.799	57.759	0.023	-0.022
-509.785	-200.000	0.023	0.115
-508.770	-131.718	-0.035	0.005
-507.756	242.938	-0.052	-0.086
-506.741	-10.223	-0.395	0.260
-505.726	-112.413	0.098	0.019
-504.712	-200.000	-0.014	-0.185
-503.697	137.948	-0.128	-0.167
-502.683	60.122	-0.291	-0.286
-501.668	547.635	-0.164	-0.390
-500.653	800.000	0.037	0.108
-499.639	-200.000	0.058	-0.268
-498.624	-39.148	-0.311	-0.162
-497.610	-200.000	-0.025	-0.242
-496.595	295.477	-0.059	-0.108
-495.581	-18.265	-0.257	-0.159
-494.566	35.551	0.275	-0.240
-493.551	-62.027	-0.049	-0.020
-492.537	-200.000	0.027	-0.194
-491.522	800.000	0.110	0.417
-490.508	-107.529	0.100	-0.022
-489.493	421.217	-0.073	-0.156
-488.478	-102.692	-0.262	0.062
-487.464	-123.987	0.092	-0.014
-486.449	-171.870	0.273	-0.009
-485.435	-38.488	0.174	-0.091
-484.420	209.510	0.096	-0.149
-483.405	-14.346	-0.370	0.237
-482.391	113.994	0.176	-0.213
-481.376	132.792	-0.103	-0.131
-480.362	-72.487	-0.277	-0.101
-479.347	-62.266	0.271	0.112
-478.332	119.701	0.174	0.214
-477.318	-19.439	0.164	0.101
-476.303	54.349	-0.145	0.139
-475.289	800.000	0.058	0.191
-474.274	110.861	0.157	0.187
-473.259	-23.239	0.256	0.153
-472.245	-63.611	0.201	-0.082
-471.230	400.074	0.104	0.216
-470.216	-19.993	-0.302	0.185
-469.201	800.000	0.034	0.110
-468.186	800.000	-0.143	-0.514
-467.172	-91.385	0.383	0.109
-466.157	-7.358	0.029	0.019
-465.143	800.000	0.066	0.246
-464.128	416.627	-0.073	-0.154
-463.113	-118.678	-0.234	0.041
-462.099	-157.714	0.185	-0.011
-461.084	1.032	0.168	-0.119
-460.070	725.022	0.035	-0.092
-459.055	92.142	0.076	-0.085
-458.040	-86.892	-0.101	0.031
-457.026	-200.000	0.028	0.343
-456.011	-36.790	-0.189	-0.100
-454.997	-36.275	-0.159	0.085
-453.982	343.095	0.056	0.109
-452.968	259.023	-0.050	0.085
-451.953	78.915	0.134	0.142
-450.938	800.000	0.083	0.245
-449.924	674.104	-0.112	0.287
-448.909	-141.593	-0.214	-0.021
-447.895	154.598	-0.154	-0.210
-446.880	-112.976	0.309	0.061
-445.865	94.363	-0.176	0.198
-444.851	13.795	-0.238	-0.183
-443.836	-200.000	-0.026	-0.184
-442.822	168.120	-0.205	-0.289
-441.807	-91.608	-0.252	-0.071
-440.792	107.697	0.306	-0.361
-439.778	-200.000	-0.032	-0.246
-438.763	-200.000	-0.037	-0.207
-437.749	-59.249	0.595	0.254
-436.734	-136.823	0.177	0.020
-435.719	-200.000	0.004	0.379
-434.705	-137.816	0.341	0.038
-433.690	638.504	0.118	-0.298
-432.676	-200.000	-0.033	0.305
-431.661	800.000	-0.007	0.021
-430.646	-12.307	-0.239	0.155
-429.632	-200.000	0.040	-0.305
-428.617	227.312	0.100	-0.161
-427.603	-48.890	0.184	0.087
-426.588	-79.505	-0.292	-0.098
-425.573	-129.744	-0.193	0.026
-424.559	196.319	-0.060	0.090
-423.544	-39.844	-0.138	-0.071
-422.530	-200.000	0.026	-0.228
-421.515	-111.442	0.390	-0.079
-420.500	-27.756	-0.235	0.135
-419.486	92.202	0.170	0.189
-418.471	-119.172	0.256	-0.044
-417.457	-200.000	-0.012	-0.103
-416.442	-125.559	-0.392	0.059
-415.428	-79.435	0.349	0.117
-414.413	-84.165	-0.268	0.084
-413.398	800.000	-0.054	-0.177
-412.384	-30.628	0.223	-0.125
-411.369	-47.133	0.157	-0.076
-410.355	100.496	-0.085	0.098
-409.340	429.989	-0.087	-0.185
-408.325	-137.614	-0.230	0.026
-407.311	800.000	0.070	0.229
-406.296	-162.182	0.130	-0.006
-405.282	155.561	-0.134	0.183
-404.267	-200.000	0.157	0.000
-403.252	-9.263	-0.160	0.106
-402.238	-200.000	-0.020	0.287
-401.223	-89.307	0.153	0.045
-400.209	62.745	0.143	-0.141
-399.194	-200.000	-0.065	-0.355
-398.179	36.721	-0.170	0.149
-397.165	-200.000	0.001	0.113
-396.150	-200.000	0.017	0.394
-395.136	-200.000	-0.010	0.063
-394.121	6.219	-0.181	-0.133
-393.106	312.059	-0.238	-0.442
-392.092	-200.000	0.009	-0.065
-391.077	-200.000	0.049	-0.328
-390.063	-39.382	0.255	-0.132
-389.048	439.675	0.045	-0.096
-388.033	261.703	0.079	-0.136
-387.019	227.132	0.127	0.203
-386.004	34.870	0.433	0.375
-384.990	-146.353	-0.119	-0.010
-383.975	800.000	-0.064	-0.224
-382.960	-200.000	0.005	0.352
-381.946	17.659	0.069	0.054
-380.931	-44.020	0.195	-0.097
-379.917	766.943	-0.080	-0.215
-378.902	-99.738	0.074	0.018
-377.888	-39.225	-0.260	-0.135
-376.873	-68.709	0.136	-0.052
-375.858	-88.995	-0.258	0.075
-374.844	61.843	0.193	0.190
-373.829	-200.000	-0.033	0.263
-372.815	-88.152	-0.150	-0.044
-371.800	286.546	0.101	0.181
-370.785	487.157	0.043	-0.097
-369.771	800.000	-0.026	-0.097
-368.756	5.733	0.256	0.187
-367.742	-200.000	-0.030	0.231
-366.727	-130.538	0.387	0.052
-365.712	21.236	-0.164	0.131
-364.698	800.000	0.063	-0.173
-363.683	-180.804	-0.231	-0.005
-362.669	2.630	-0.077	0.055
-361.654	-74.586	0.349	0.124
-360.639	-15.350	0.296	-0.187
-359.625	-86.863	-0.237	-0.071
-358.610	-200.000	-0.001	-0.040
-357.596	-105.636	0.244	0.054
-356.581	-200.000	-0.036	0.260
-355.566	-72.584	0.073	0.027
-354.552	-11.214	0.106	-0.069
-353.537	-149.311	0.166	0.013
-352.523	800.000	-0.040	0.112
-351.508	-11.792	-0.316	0.205
-350.493	-74.620	-0.132	-0.047
-349.479	75.043	-0.112	0.116
-348.464	110.498	-0.121	-0.144
-347.450	-46.506	-0.138	-0.067
-346.435	98.700	0.141	-0.161
-345.420	25.150	-0.192	0.158
-344.406	-160.886	-0.133	-0.007
-343.391	-33.298	-0.072	0.039
-342.377	-30.198	-0.166	0.093
-341.362	-200.000	0.056	-0.361
-340.348	38.675	0.324	0.285
-339.333	230.374	-0.154	0.249
-338.318	-9.759	0.234	0.154
-337.304	-41.807	0.192	-0.097
-336.289	-72.813	0.186	0.067
-335.275	449.347	-0.044	0.096
-334.260	-200.000	0.021	-0.099
-333.245	800.000	0.116	0.409
-332.231	-15.567	-0.144	0.091
-331.216	-19.962	-0.205	-0.125
-330.202	-57.092	0.476	0.207
-329.187	105.738	0.250	0.292
-328.172	-174.399	0.217	0.006
-327.158	42.445	-0.148	0.133
-326.143	-200.000	-0.026	0.168
-325.129	56.253	-0.084	0.080
-324.114	-178.241	-0.157	0.004
-323.099	-9.342	0.154	0.101
-322.085	-15.955	0.246	0.154
-321.070	104.407	-0.132	-0.153
-320.056	-200.000	-0.011	0.120
-319.041	-200.000	0.016	-0.377
-318.026	48.337	-0.271	0.250
-317.012	-46.876	0.083	0.040
-315.997	800.000	-0.007	0.021
-314.983	-100.949	-0.101	-0.025
-313.968	-200.000	-0.042	-0.346
-312.953	-100.078	-0.215	0.053
-311.939	-7.578	-0.094	-0.063
-310.924	-61.189	0.324	0.135
-309.910	-85.129	0.120	-0.037
-308.895	351.330	-0.192	0.374
-307.880	58.526	0.088	0.085
-306.866	-33.992	0.185	0.100
-305.851	211.114	-0.113	0.174
-304.837	238.334	-0.040	0.065
-303.822	800.000	0.058	-0.220
-302.807	-200.000	-0.046	0.295
-301.793	-98.646	-0.190	0.048
-300.778	-38.215	0.163	-0.085
-299.764	-200.000	-0.018	0.082
-298.749	37.694	-0.169	0.148
-297.735	-200.000	0.038	-0.277
-296.720	27.178	0.032	0.026
-295.705	403.533	-0.087	-0.181
-294.691	-100.761	-0.124	-0.030
-293.676	-51.959	-0.177	-0.081
-292.662	800.000	-0.064	-0.216
-291.647	-45.110	0.057	0.028
-290.632	129.712	-0.111	0.140
-289.618	45.719	-0.211	0.192
-288.603	163.570	-0.170	-0.236
-287.589	19.567	-0.286	-0.227
-286.574	53.346	-0.224	0.212
-285.559	-17.137	0.325	0.202
-284.545	351.847	-0.098	-0.191
-283.530	-200.000	0.024	-0.206
-282.516	466.799	-0.169	-0.374
-281.501	540.692	-0.079	0.186
-280.486	-200.000	0.043	-0.196
-279.472	-113.679	0.454	0.087
-278.457	-112.042	0.344	-0.068
-277.443	293.148	-0.124	-0.222
-276.428	-73.096	0.044	0.016
-275.413	800.000	-0.070	-0.277
-274.399	330.364	0.230	-0.435
-273.384	133.156	-0.112	-0.142
-272.370	124.187	0.112	0.139
-271.355	-70.677	0.260	0.097
-270.340	-47.811	-0.121	0.058
-269.326	-74.296	-0.161	0.057
-268.311	-200.000	-0.022	0.115
-267.297	800.000	-0.129	-0.411
-266.282	-118.688	-0.158	-0.027
-265.267	51.286	-0.204	-0.191
-264.253	447.817	0.147	-0.318
-263.238	-81.360	0.090	-0.029
-262.224	224.283	-0.211	0.336
-261.209	117.715	-0.365	0.442
-260.195	22.861	0.350	-0.282
-259.180	-95.551	-0.089	0.024
-258.165	-106.924	0.223	-0.049
-257.151	800.000	0.098	0.267
-256.136	258.525	0.200	0.339
-255.122	-200.000	0.026	0.136
-254.107	249.726	0.086	0.143
-253.092	-200.000	-0.046	0.427
-252.078	123.319	0.110	-0.136
-251.063	-126.228	-0.056	-0.008
-250.049	800.000	0.076	0.328
-249.034	36.111	0.216	0.187
-248.019	78.007	0.328	0.344
-247.005	-200.000	0.002	0.290
-245.990	28.668	-0.232	-0.193
-244.976	800.000	-0.057	0.161
-243.961	-200.000	0.021	-0.284
-242.946	-23.553	-0.198	0.117
-241.932	-200.000	0.013	-0.105
-240.917	-200.000	-0.022	-0.146
-239.903	18.215	0.280	0.220
-238.888	39.706	-0.106	-0.094
-237.873	31.497	0.458	0.387
-236.859	-183.269	-0.194	-0.003
-235.844	-200.000	-0.001	0.100
-234.830	-200.000	0.011	0.134
-233.815	800.000	0.088	-0.359
-232.800	800.000	-0.060	-0.212
-231.786	-15.666	-0.159	0.100
-230.771	368.859	0.062	-0.123
-229.757	-97.077	0.140	0.036
-228.742	509.909	-0.129	-0.294
-227.727	-144.519	0.314	-0.029
-226.713	800.000	-0.025	0.068
-225.698	800.000	0.036	0.136
-224.684	69.567	-0.167	0.169
-223.669	-76.793	0.189	-0.065
-222.655	-40.097	-0.118	0.060
-221.640	48.760	-0.110	-0.101
-220.625	176.517	-0.118	-0.168
-219.611	800.000	-0.085	0.346
-218.596	-95.788	-0.238	-0.062
-217.582	-161.072	0.307	-0.016
-216.567	10.881	0.384	0.288
-215.552	432.956	0.312	-0.666
-214.538	-9.598	0.137	-0.090
-213.523	215.553	-0.154	-0.241
-212.509	-28.839	0.045	-0.025
-211.494	120.882	0.134	-0.163
-210.479	-194.779	0.398	-0.003
-209.465	-48.711	-0.302	-0.143
-208.450	758.531	0.092	0.246
-207.436	-78.734	-0.232	-0.078
-206.421	745.682	0.069	0.181
-205.406	-82.177	0.200	-0.064
-204.392	-200.000	0.043	-0.417
-203.377	-86.209	-0.075	-0.023
-202.363	-54.422	0.264	0.117
-201.348	-65.790	0.121	0.048
-200.333	178.492	0.229	-0.328
-199.319	146.451	0.153	0.202
-198.304	1.989	-0.119	-0.084
-197.290	-43.886	0.225	-0.111
-196.275	-110.329	0.165	0.034
-195.260	29.641	-0.107	0.089
-194.246	-136.262	0.112	-0.013
-193.231	9.909	-0.225	-0.168
-192.217	-52.237	-0.181	0.082
-191.202	-41.817	0.185	0.093
-190.187	-60.043	0.252	-0.105
-189.173	215.243	0.048	0.074
-188.158	-200.000	0.019	-0.129
-187.144	32.914	0.271	-0.230
-186.129	57.831	-0.128	0.123
-185.114	-140.526	-0.013	-0.001
-184.100	379.684	-0.156	0.313
-183.085	-52.990	-0.189	-0.085
-182.071	-161.667	-0.179	0.009
-181.056	73.373	-0.219	-0.225
-180.042	-200.000	0.012	-0.160
-179.027	31.628	-0.035	0.029
-178.012	-200.000	0.031	-0.224
-176.998	-80.000	0.175	-0.058
-175.983	-77.109	-0.206	0.071
-174.969	-200.000	-0.005	0.466
-173.954	-49.587	-0.141	0.066
-172.939	-18.589	0.058	-0.035
-171.925	800.000	-0.134	0.403
-170.910	202.785	0.057	-0.086
-169.896	-86.193	0.134	0.040
-168.881	-142.670	0.047	-0.004
-167.866	2.104	0.248	-0.176
-166.852	-35.753	0.203	0.108
-165.837	-200.000	-0.027	-0.125
-164.823	-69.375	0.185	-0.070
-163.808	-200.000	-0.082	-0.513
-162.793	160.908	-0.159	0.218
-161.779	-37.240	-0.439	0.230
-160.764	-113.467	0.342	-0.066
-159.750	-102.844	-0.062	0.014
-158.735	-50.978	0.238	0.109
-157.720	-200.000	-0.030	-0.133
-156.706	-200.000	-0.022	-0.134
-155.691	-200.000	-0.001	0.049
-154.677	-97.680	-0.303	-0.077
-153.662	12.173	0.059	-0.045
-152.647	-108.265	0.072	0.015
-151.633	800.000	0.035	0.123
-150.618	62.534	0.257	0.251
-149.604	52.955	-0.039	0.037
-148.589	56.678	-0.090	-0.086
-147.574	-146.141	-0.125	-0.011
-146.560	127.290	0.132	0.164
-145.545	-200.000	0.019	-0.156
-144.531	800.000	-0.087	0.252
-143.516	-189.415	-0.421	-0.005
-142.502	-115.327	-0.214	-0.040
-141.487	800.000	0.033	-0.139
-140.472	120.910	-0.100	-0.122
-139.458	21.108	-0.121	-0.096
-138.443	72.756	-0.097	0.099
-137.429	27.590	0.236	-0.194
-136.414	-84.009	0.326	-0.102
-135.399	-31.661	0.213	-0.117
-134.385	-51.119	0.156	-0.072
-133.370	741.381	0.083	0.220
-132.356	-200.000	-0.005	-0.024
-131.341	-100.015	0.258	-0.063
-130.326	46.904	0.164	-0.149
-129.312	173.174	0.079	-0.112
-128.297	32.952	0.296	0.251
-127.283	17.181	0.152	-0.118
-126.268	349.966	0.223	0.430
-125.253	-162.087	0.131	0.006
-124.239	-200.000	-0.417	-0.002
-123.224	176.799	-0.048	0.068
-122.210	384.025	-0.098	0.197
-121.195	284.336	0.120	-0.211
