DTS Sentinel unit serial number:	SN413079Multiplexer serial number:	ORYXHardware model number:	OX4-SRSoftware version number:	ORYX F/W v4.00 Oryx Data Collector v3.7.2.0data status	okinstallation	princeton_trtdifferential loss correction	single-endedforward channel	channel 1reverse channel	N/Adate	2019/09/14time	02:42:35forward acquisition time	60.00reverse acquisition time	0.00gamma	496.2192k internal	0.2336k external	0.2336temperature offset calibration	1.0075default loss term (dB/km)	0.3790temperature slope calibration	1.0000multiplexer offset coefficient	1.0000multiplexer slope coefficient	1.0000fibre end	0.00T internal ref (°C)	26.55T ext. ref 1 (°C)	3.23T ext. ref 2 (°C)	21.60length (m)	temperature (°C)	Stokes	anti-Stokes-747.200	-200.000	-0.001	0.194
-746.185	800.000	0.054	0.157
-745.171	253.388	0.036	-0.062
-744.156	472.750	-0.118	-0.267
-743.142	800.000	0.052	-0.188
-742.127	-200.000	-0.014	-0.095
-741.112	-200.000	-0.006	0.145
-740.098	-200.000	-0.034	0.184
-739.083	800.000	0.056	0.221
-738.069	100.060	-0.186	0.216
-737.054	109.563	-0.087	0.105
-736.039	-23.578	-0.266	-0.160
-735.025	-108.448	-0.305	0.066
-734.010	49.497	-0.145	-0.137
-732.996	-153.636	-0.220	-0.015
-731.981	-142.616	0.143	0.014
-730.966	0.565	0.104	0.075
-729.952	-109.462	-0.232	-0.049
-728.937	-200.000	0.006	-0.053
-727.923	-200.000	0.014	-0.192
-726.908	-200.000	-0.012	-0.138
-725.894	131.765	-0.145	-0.188
-724.879	-29.640	0.057	0.033
-723.864	3.936	-0.226	0.165
-722.850	-177.286	-0.296	0.007
-721.835	25.798	-0.145	0.121
-720.821	-110.081	0.269	0.056
-719.806	717.853	0.047	-0.125
-718.791	464.835	0.117	-0.263
-717.777	-99.128	-0.063	-0.016
-716.762	-200.000	-0.030	0.227
-715.748	-21.628	-0.075	-0.046
-714.733	-57.712	-0.184	0.081
-713.718	-200.000	-0.053	0.469
-712.704	-32.939	-0.122	0.068
-711.689	121.567	0.241	-0.301
-710.675	26.308	-0.272	-0.228
-709.660	-106.747	0.302	0.067
-708.645	54.362	-0.170	-0.164
-707.631	-15.484	-0.235	-0.150
-706.616	-200.000	-0.017	-0.092
-705.602	-134.759	-0.275	0.033
-704.587	19.662	-0.107	0.086
-703.572	-23.906	0.232	-0.139
-702.558	-151.456	-0.206	0.015
-701.543	-162.409	0.172	0.009
-700.529	156.340	-0.145	-0.201
-699.514	66.015	-0.158	-0.160
-698.499	-155.363	-0.458	0.030
-697.485	76.985	0.231	-0.246
-696.470	719.602	0.076	-0.202
-695.456	-200.000	-0.013	-0.087
-694.441	34.614	-0.165	0.145
-693.426	-22.525	-0.049	-0.029
-692.412	-200.000	0.011	0.096
-691.397	-129.050	-0.274	-0.038
-690.383	-59.096	0.126	-0.054
-689.368	800.000	0.132	-0.448
-688.354	-2.939	-0.060	-0.042
-687.339	115.443	-0.132	0.162
-686.324	150.368	-0.168	-0.229
-685.310	800.000	-0.097	0.375
-684.295	-160.945	-0.061	-0.003
-683.281	83.057	0.117	-0.127
-682.266	-200.000	-0.021	0.106
-681.251	-32.278	-0.164	-0.092
-680.237	38.911	-0.218	-0.195
-679.222	466.278	0.036	0.081
-678.208	-200.000	0.026	0.302
-677.193	69.293	-0.064	-0.066
-676.178	-129.634	0.172	0.024
-675.164	-98.411	0.288	0.074
-674.149	-171.368	0.077	0.003
-673.135	-90.717	-0.193	0.056
-672.120	-200.000	0.044	-0.225
-671.105	-200.000	0.073	-0.380
-670.091	-194.636	0.046	0.000
-669.076	-61.272	-0.190	0.080
-668.062	-80.418	-0.154	0.052
-667.047	-57.382	-0.373	0.164
-666.032	470.048	-0.047	-0.106
-665.018	2.837	-0.245	0.178
-664.003	-125.168	0.027	-0.004
-662.989	288.874	0.097	0.175
-661.974	-101.452	0.069	0.017
-660.959	-15.583	0.203	0.130
-659.945	-200.000	0.002	0.180
-658.930	206.734	-0.095	-0.148
-657.916	-76.409	0.135	-0.047
-656.901	578.266	-0.091	0.222
-655.886	608.216	-0.109	-0.273
-654.872	677.062	0.080	-0.207
-653.857	800.000	0.024	0.089
-652.843	-72.655	0.216	-0.080
-651.828	347.906	0.088	-0.173
-650.814	120.687	0.103	-0.129
-649.799	-36.371	-0.169	0.091
-648.784	-60.284	-0.209	-0.089
-647.770	97.895	0.226	-0.260
-646.755	53.513	-0.287	0.276
-645.741	64.893	-0.206	0.208
-644.726	238.284	0.129	0.215
-643.711	-1.830	-0.173	0.122
-642.697	-77.854	-0.210	-0.073
-641.682	730.365	0.067	-0.180
-640.668	494.567	0.128	0.293
-639.653	193.919	-0.042	0.063
-638.638	-169.902	0.201	0.007
-637.624	800.000	-0.044	0.158
-636.609	123.588	-0.108	-0.135
-635.595	-8.917	0.154	0.103
-634.580	424.526	-0.119	0.257
-633.565	-200.000	-0.010	0.124
-632.551	54.022	-0.281	-0.270
-631.536	-95.771	-0.318	-0.085
-630.522	800.000	-0.037	-0.141
-629.507	123.582	-0.065	-0.082
-628.492	185.789	0.116	-0.172
-627.478	-200.000	-0.015	0.154
-626.463	-200.000	0.026	0.138
-625.449	800.000	-0.108	0.420
-624.434	800.000	-0.113	-0.386
-623.419	-71.466	-0.195	0.073
-622.405	4.131	0.145	0.106
-621.390	65.191	0.086	0.087
-620.376	-169.192	0.271	-0.010
-619.361	-67.288	0.072	0.028
-618.346	64.358	-0.071	0.071
-617.332	-170.277	-0.150	-0.005
-616.317	800.000	0.091	-0.383
-615.303	-41.617	-0.195	-0.100
-614.288	-133.182	-0.471	-0.059
-613.273	85.954	0.096	0.105
-612.259	-132.738	-0.630	0.081
-611.244	145.642	-0.171	-0.228
-610.230	800.000	-0.074	-0.273
-609.215	-98.022	0.232	0.060
-608.201	-54.886	0.135	-0.061
-607.186	800.000	0.123	0.361
-606.171	192.218	-0.086	0.129
-605.157	-38.792	-0.493	-0.259
-604.142	221.622	-0.049	0.078
-603.128	262.463	0.118	0.205
-602.113	283.277	-0.086	0.154
-601.098	-126.165	-0.221	-0.033
-600.084	116.969	-0.050	-0.061
-599.069	-155.613	-0.131	-0.008
-598.055	-179.310	-0.178	0.004
-597.040	-68.504	-0.194	-0.075
-596.025	63.859	0.076	0.076
-595.011	508.449	-0.073	0.169
-593.996	4.287	-0.295	0.216
-592.982	-200.000	0.039	-0.186
-591.967	139.007	0.116	0.153
-590.952	-65.235	0.379	-0.152
-589.938	-126.979	-0.208	0.031
-588.923	-200.000	0.016	0.145
-587.909	-200.000	-0.002	-0.475
-586.894	276.036	0.179	-0.318
-585.879	-155.474	0.383	0.025
-584.865	800.000	0.204	-0.563
-583.850	-116.611	0.188	-0.035
-582.836	28.012	0.162	0.137
-581.821	157.256	0.152	-0.209
-580.806	-200.000	0.037	-0.208
-579.792	-21.417	0.149	0.091
-578.777	-72.354	-0.110	-0.041
-577.763	-96.150	-0.446	-0.118
-576.748	114.164	0.182	-0.221
-575.733	-57.622	-0.228	-0.100
-574.719	-92.505	-0.251	0.070
-573.704	-100.275	0.292	-0.072
-572.690	-200.000	-0.042	-0.545
-571.675	-11.525	-0.098	0.064
-570.661	-61.377	-0.061	0.025
-569.646	-116.633	-0.133	0.024
-568.631	161.342	0.079	-0.111
-567.617	-200.000	0.027	-0.152
-566.602	29.460	-0.351	-0.297
-565.588	800.000	-0.020	0.056
-564.573	54.239	0.385	0.370
-563.558	38.766	-0.204	0.182
-562.544	-121.990	0.125	0.021
-561.529	89.191	-0.059	0.066
-560.515	89.596	0.165	-0.184
-559.500	-200.000	-0.034	-0.314
-558.485	113.619	0.114	0.138
-557.471	-71.611	-0.246	-0.092
-556.456	97.139	-0.193	-0.221
-555.442	-53.484	-0.221	-0.101
-554.427	-171.970	0.112	-0.004
-553.412	-10.884	0.279	0.184
-552.398	103.850	-0.122	-0.143
-551.383	-200.000	-0.003	0.120
-550.369	152.414	0.055	-0.075
-549.354	-200.000	-0.031	-0.152
-548.339	800.000	-0.130	0.406
-547.325	-48.309	0.155	0.074
-546.310	-200.000	-0.029	-0.229
-545.296	-138.548	-0.116	0.013
-544.281	-200.000	0.031	-0.185
-543.266	13.373	-0.166	-0.128
-542.252	164.588	0.130	-0.183
-541.237	61.324	-0.166	-0.164
-540.223	-90.364	0.180	-0.052
-539.208	322.568	0.193	-0.367
-538.193	-114.070	0.105	0.020
-537.179	800.000	-0.110	-0.330
-536.164	739.321	-0.035	0.094
-535.150	100.156	-0.213	-0.247
-534.135	-113.400	-0.109	-0.021
-533.121	331.551	0.124	-0.238
-532.106	-88.794	0.494	0.146
-531.091	129.713	0.079	0.100
-530.077	-200.000	0.028	0.366
-529.062	59.874	0.082	0.081
-528.048	-32.641	-0.190	0.105
-527.033	-91.402	0.084	-0.024
-526.018	800.000	0.035	0.114
-525.004	279.994	0.060	-0.107
-523.989	-200.000	-0.072	0.331
-522.975	-37.294	-0.292	0.156
-521.960	-200.000	-0.018	-0.220
-520.945	-6.266	0.131	0.089
-519.931	800.000	0.028	0.114
-518.916	77.631	-0.114	0.121
-517.902	-91.350	0.160	-0.046
-516.887	800.000	0.060	0.170
-515.872	-62.504	-0.230	0.095
-514.858	-200.000	-0.014	-0.176
-513.843	-146.603	0.216	-0.019
-512.829	-20.476	0.066	0.040
-511.814	259.993	-0.226	0.389
-510.799	261.901	-0.081	-0.139
-509.785	144.307	-0.114	-0.152
-508.770	-47.961	0.338	0.163
-507.756	-97.698	-0.188	0.048
-506.741	-80.156	0.309	-0.103
-505.726	-198.930	0.149	0.001
-504.712	132.172	0.227	0.291
-503.697	-185.651	-0.154	-0.002
-502.683	201.895	0.152	-0.232
-501.668	-25.648	0.346	-0.203
-500.653	693.080	-0.109	0.283
-499.639	-200.000	0.022	0.103
-498.624	390.426	0.080	-0.165
-497.610	-9.928	0.092	-0.061
-496.595	800.000	0.099	0.317
-495.581	122.014	0.264	0.327
-494.566	-97.515	0.293	0.076
-493.551	164.000	-0.033	0.047
-492.537	67.598	-0.105	-0.107
-491.522	-66.938	-0.069	0.027
-490.508	1.391	-0.268	0.191
-489.493	-149.002	-0.174	-0.014
-488.478	-170.292	-0.129	0.005
-487.464	-82.284	0.076	-0.025
-486.449	-82.405	0.291	0.094
-485.435	-120.431	0.080	-0.014
-484.420	-89.038	0.214	-0.063
-483.405	77.358	-0.181	-0.191
-482.391	-47.327	0.022	0.010
-481.376	60.100	-0.163	0.160
-480.362	-89.277	-0.028	0.008
-479.347	-81.443	-0.358	-0.117
-478.332	391.137	0.096	0.199
-477.318	191.462	0.171	0.255
-476.303	800.000	0.024	0.069
-475.289	220.876	-0.172	-0.275
-474.274	265.872	0.092	-0.159
-473.259	-67.322	0.505	-0.197
-472.245	-200.000	0.050	-0.331
-471.230	285.073	-0.101	0.182
-470.216	282.654	0.105	-0.188
-469.201	-151.217	-0.205	-0.015
-468.186	-113.481	-0.038	0.007
-467.172	-200.000	-0.010	-0.063
-466.157	-5.556	-0.023	0.016
-465.143	-200.000	0.048	-0.328
-464.128	47.232	0.224	-0.207
-463.113	-200.000	-0.041	-0.300
-462.099	230.001	0.020	0.033
-461.084	649.194	-0.148	0.375
-460.070	-200.000	0.003	0.182
-459.055	87.451	-0.228	0.250
-458.040	81.214	0.147	0.157
-457.026	159.305	0.175	-0.242
-456.011	221.578	-0.045	-0.072
-454.997	-200.000	0.046	-0.249
-453.982	125.619	0.130	-0.163
-452.968	-62.098	-0.040	0.016
-451.953	140.212	0.270	-0.353
-450.938	117.205	-0.078	-0.095
-449.924	17.873	0.154	0.122
-448.909	113.969	-0.147	0.177
-447.895	-134.065	0.287	0.035
-446.880	674.568	-0.034	0.088
-445.865	800.000	0.033	0.141
-444.851	362.953	-0.131	0.261
-443.836	-66.790	-0.062	-0.024
-442.822	800.000	-0.076	0.237
-441.807	225.189	0.142	0.228
-440.792	64.428	-0.272	0.272
-439.778	-36.683	-0.100	-0.053
-438.763	597.356	-0.085	-0.208
-437.749	-161.664	-0.177	0.009
-436.734	693.614	-0.008	-0.021
-435.719	371.376	-0.032	-0.064
-434.705	-65.827	-0.272	-0.108
-433.690	800.000	0.041	-0.160
-432.676	5.176	-0.358	0.262
-431.661	-79.254	0.112	0.038
-430.646	-200.000	0.080	-0.419
-429.632	-26.839	0.134	0.078
-428.617	204.951	-0.113	0.174
-427.603	532.185	-0.015	0.035
-426.588	-7.571	0.229	-0.153
-425.573	-75.902	0.119	0.042
-424.559	3.794	0.412	0.298
-423.544	-200.000	0.059	-0.297
-422.530	-200.000	-0.011	-0.194
-421.515	392.286	0.078	0.160
-420.500	116.722	-0.158	0.192
-419.486	580.866	0.087	-0.211
-418.471	-51.787	-0.343	0.159
-417.457	-200.000	-0.079	0.520
-416.442	-200.000	0.000	0.086
-415.428	-134.103	-0.282	-0.035
-414.413	-48.439	-0.330	-0.158
-413.398	-200.000	-0.013	-0.238
-412.384	-200.000	0.029	-0.263
-411.369	7.086	-0.359	0.266
-410.355	72.202	0.239	0.246
-409.340	800.000	-0.080	-0.233
-408.325	75.637	0.164	0.172
-407.311	-200.000	0.009	-0.093
-406.296	188.453	0.035	-0.052
-405.282	-36.746	0.104	-0.055
-404.267	-200.000	-0.035	-0.288
-403.252	-200.000	-0.039	-0.442
-402.238	211.686	-0.164	0.256
-401.223	-174.272	0.287	-0.008
-400.209	-109.376	-0.194	-0.041
-399.194	-49.357	0.133	0.063
-398.179	153.590	0.163	0.221
-397.165	765.955	-0.036	-0.096
-396.150	-200.000	0.003	0.236
-395.136	800.000	0.123	-0.404
-394.121	-200.000	-0.066	-0.352
-393.106	-200.000	-0.013	-0.234
-392.092	-58.251	0.317	0.137
-391.077	800.000	-0.074	0.318
-390.063	111.254	0.282	-0.337
-389.048	-200.000	-0.004	-0.056
-388.033	800.000	-0.163	0.523
-387.019	-44.128	0.043	-0.021
-386.004	-115.523	0.384	-0.072
-384.990	25.398	-0.177	-0.146
-383.975	-65.457	-0.120	-0.048
-382.960	63.213	0.219	-0.217
-381.946	528.833	0.152	0.355
-380.931	45.350	-0.232	-0.212
-379.917	-200.000	-0.026	-0.147
-378.902	-135.203	-0.128	-0.015
-377.888	90.428	0.349	0.387
-376.873	383.600	0.197	0.402
-375.858	238.195	0.062	-0.102
-374.844	414.834	0.062	-0.130
-373.829	173.243	-0.229	-0.326
-372.815	104.112	0.169	0.197
-371.800	475.760	-0.044	-0.098
-370.785	312.313	-0.026	-0.049
-369.771	-43.565	0.053	-0.027
-368.756	61.742	0.114	0.112
-367.742	-95.252	0.257	0.069
-366.727	98.461	0.049	0.056
-365.712	-125.346	0.348	0.052
-364.698	98.159	0.147	-0.167
-363.683	-65.146	0.281	-0.112
-362.669	-99.360	-0.094	0.024
-361.654	-1.789	0.024	-0.017
-360.639	733.818	0.103	-0.272
-359.625	-54.035	0.042	-0.019
-358.610	-99.681	-0.243	0.060
-357.596	602.852	-0.087	-0.213
-356.581	800.000	-0.051	-0.150
-355.566	-0.578	-0.245	-0.172
-354.552	-200.000	-0.023	-0.136
-353.537	292.667	0.108	0.195
-352.523	-200.000	0.014	0.244
-351.508	-29.024	-0.188	-0.107
-350.493	-200.000	-0.001	-0.066
-349.479	-200.000	0.056	-0.319
-348.464	-200.000	-0.002	0.110
-347.450	96.395	0.128	-0.145
-346.435	33.624	-0.153	0.132
-345.420	-200.000	-0.049	0.341
-344.406	-200.000	-0.035	0.359
-343.391	-141.747	0.113	0.011
-342.377	200.895	-0.057	-0.087
-341.362	-200.000	0.025	0.171
-340.348	800.000	-0.068	-0.223
-339.333	-47.020	0.276	0.133
-338.318	800.000	-0.059	-0.162
-337.304	-24.211	0.162	0.096
-336.289	-93.905	-0.338	-0.092
-335.275	22.973	-0.082	0.066
-334.260	-30.425	-0.262	-0.147
-333.245	176.373	0.160	0.230
-332.231	-56.364	0.142	-0.062
-331.216	-68.785	0.125	-0.048
-330.202	274.620	0.089	0.156
-329.187	-114.128	0.268	0.051
-328.172	-79.233	0.195	0.065
-327.158	-29.323	0.082	-0.046
-326.143	15.857	-0.061	-0.047
-325.129	-48.270	0.156	-0.074
-324.114	103.721	0.072	-0.084
-323.099	398.620	-0.045	-0.092
-322.085	-200.000	0.004	0.151
-321.070	-97.738	-0.145	0.037
-320.056	-58.910	-0.127	0.054
-319.041	-61.182	-0.152	0.063
-318.026	53.713	-0.117	-0.111
-317.012	34.073	0.126	0.108
-315.997	-34.601	0.368	-0.199
-314.983	-65.257	-0.142	0.056
-313.968	-135.087	0.265	0.032
-312.953	-132.099	-0.402	0.052
-311.939	36.630	0.232	0.202
-310.924	166.417	-0.122	-0.171
-309.910	32.810	-0.199	-0.170
-308.895	-97.831	-0.289	-0.074
-307.880	-127.045	0.432	-0.063
-306.866	-200.000	-0.064	-0.566
-305.851	-200.000	0.081	0.359
-304.837	-95.914	0.233	0.061
-303.822	-143.777	0.244	0.023
-302.807	14.548	0.181	-0.140
-301.793	185.422	0.165	0.242
-300.778	-72.806	0.361	-0.131
-299.764	113.144	0.114	0.137
-298.749	-76.515	-0.159	-0.055
-297.735	-200.000	0.018	0.135
-296.720	33.812	0.152	0.131
-295.705	-29.716	-0.410	-0.231
-294.691	-200.000	0.004	-0.022
-293.676	-86.712	-0.159	-0.048
-292.662	-34.320	-0.207	-0.112
-291.647	-137.518	-0.177	-0.020
-290.632	-87.786	-0.132	0.039
-289.618	-200.000	0.002	-0.262
-288.603	-200.000	-0.007	-0.042
-287.589	114.178	-0.138	0.165
-286.574	-152.428	-0.121	-0.009
-285.559	-100.412	-0.262	0.064
-284.545	202.570	0.122	-0.185
-283.530	-16.013	0.237	-0.149
-282.516	394.231	-0.101	0.208
-281.501	800.000	-0.019	-0.073
-280.486	-22.320	-0.244	-0.146
-279.472	243.712	0.061	-0.100
-278.457	-127.814	0.345	0.049
-277.443	-200.000	0.030	0.138
-276.428	195.495	-0.040	0.060
-275.413	-200.000	0.021	-0.123
-274.399	-72.302	-0.034	0.012
-273.384	-68.565	-0.055	0.021
-272.370	-20.848	0.082	-0.050
-271.355	245.104	-0.095	-0.158
-270.340	722.644	-0.022	0.058
-269.326	108.582	0.058	0.069
-268.311	121.892	0.160	-0.197
-267.297	-200.000	0.026	-0.203
-266.282	627.750	-0.012	-0.030
-265.267	-53.550	0.123	-0.056
-264.253	-61.562	-0.230	0.095
-263.238	-117.875	-0.293	-0.052
-262.224	-200.000	0.039	-0.177
-261.209	0.860	0.141	-0.100
-260.195	-9.103	-0.241	-0.159
-259.180	-191.369	-0.245	-0.002
-258.165	94.859	0.142	0.159
-257.151	-30.437	-0.098	-0.055
-256.136	124.362	0.147	-0.182
-255.122	-61.646	0.246	-0.101
-254.107	-131.793	0.484	-0.062
-253.092	-5.106	0.198	0.134
-252.078	-164.112	0.324	0.015
-251.063	-82.883	-0.178	0.056
-250.049	-157.812	-0.192	0.011
-249.034	-119.959	-0.106	-0.018
-248.019	-160.539	0.207	0.011
-247.005	613.826	0.190	-0.469
-245.990	-200.000	0.026	-0.221
-244.976	154.817	0.026	0.036
-243.961	-35.584	0.230	-0.123
-242.946	263.194	-0.101	0.172
-241.932	-169.576	-0.280	-0.010
-240.917	87.472	0.231	0.252
-239.903	212.934	-0.235	0.365
-238.888	-125.512	-0.285	0.043
-237.873	58.357	-0.095	-0.092
-236.859	-200.000	0.020	0.170
-235.844	4.828	0.376	0.272
-234.830	47.536	0.171	-0.157
-233.815	212.049	-0.218	0.338
-232.800	2.453	-0.425	0.303
-231.786	9.136	0.074	0.055
-230.771	-113.157	0.224	-0.043
-229.757	507.535	0.072	0.165
-228.742	-2.816	0.330	0.227
-227.727	744.726	-0.032	-0.085
-226.713	-200.000	-0.039	-0.185
-225.698	-151.594	-0.201	0.015
-224.684	-200.000	-0.019	0.096
-223.669	382.091	-0.090	0.183
-222.655	-200.000	-0.026	0.326
-221.640	-200.000	0.050	0.322
-220.625	302.086	-0.073	-0.134
-219.611	-26.503	-0.212	-0.122
-218.596	226.955	-0.146	-0.233
-217.582	800.000	0.094	0.260
-216.567	-200.000	-0.047	0.224
-215.552	-103.143	0.307	-0.071
-214.538	288.669	-0.243	0.434
-213.523	-200.000	0.003	0.132
-212.509	112.799	-0.082	-0.098
-211.494	-72.152	0.191	0.070
-210.479	213.168	0.154	0.239
-209.465	-18.426	0.150	-0.092
-208.450	-154.514	-0.051	-0.003
-207.436	-170.181	0.117	0.004
-206.421	77.162	0.380	0.398
-205.406	-87.241	0.277	-0.083
-204.392	-200.000	-0.007	0.126
-203.377	-174.224	-0.200	0.006
-202.363	800.000	-0.076	0.231
-201.348	52.020	-0.129	0.121
-200.333	-57.268	-0.254	0.110
-199.319	-131.847	-0.100	0.013
-198.304	96.954	0.221	-0.249
-197.290	-114.193	0.246	-0.047
-196.275	-78.170	0.325	0.110
-195.260	91.045	0.143	-0.158
-194.246	-146.530	-0.329	-0.028
-193.231	-9.668	-0.084	0.055
-192.217	800.000	0.101	0.327
-191.202	-84.034	-0.492	-0.154
-190.187	800.000	0.110	-0.395
-189.173	-200.000	-0.033	-0.148
-188.158	233.623	-0.087	0.140
-187.144	-88.406	0.138	0.040
-186.129	115.206	-0.282	0.339
-185.114	-18.068	-0.213	0.131
-184.100	-200.000	-0.017	0.130
-183.085	-200.000	0.007	0.074
-182.071	-119.882	-0.240	-0.041
-181.056	565.269	-0.065	-0.155
-180.042	-57.708	0.179	-0.077
-179.027	-200.000	0.017	-0.313
-178.012	-39.115	0.177	-0.091
-176.998	2.923	-0.138	0.099
-175.983	15.416	0.141	-0.109
-174.969	567.084	-0.023	0.055
-173.954	-22.902	-0.132	0.078
-172.939	-86.390	0.172	0.052
-171.925	-22.958	-0.096	-0.057
-170.910	-79.978	0.276	0.091
-169.896	800.000	-0.101	0.282
-168.881	280.085	-0.074	-0.129
-167.866	-200.000	0.019	0.154
-166.852	-121.125	-0.236	0.039
-165.837	-62.919	0.269	0.109
-164.823	-108.581	-0.131	-0.028
-163.808	34.325	-0.289	0.247
-162.793	607.822	-0.115	-0.281
-161.779	-200.000	-0.007	-0.093
-160.764	-73.104	0.037	-0.013
-159.750	-57.288	-0.209	0.090
-158.735	-172.509	0.361	0.011
-157.720	-200.000	0.038	0.373
-156.706	-71.469	-0.537	-0.197
-155.691	-137.171	0.391	0.044
-154.677	273.515	-0.086	0.149
-153.662	-194.255	-0.214	0.002
-152.647	-113.599	-0.082	-0.016
-151.633	14.251	-0.172	0.131
-150.618	373.003	-0.016	-0.031
-149.604	43.888	0.027	0.024
-148.589	-104.266	-0.366	0.083
-147.574	473.643	-0.115	0.254
-146.560	-200.000	-0.017	0.185
-145.545	-200.000	0.034	0.280
-144.531	224.163	0.053	-0.084
-143.516	-200.000	0.070	0.304
-142.502	-30.660	0.305	-0.170
-141.487	-101.175	0.269	-0.065
-140.472	-200.000	-0.034	0.303
-139.458	-80.071	-0.234	0.077
-138.443	41.671	0.027	0.024
-137.429	523.558	-0.081	-0.186
-136.414	-200.000	0.016	0.228
-135.399	-200.000	-0.068	0.339
-134.385	-200.000	-0.012	0.060
-133.370	28.281	-0.216	0.179
-132.356	-162.813	-0.184	0.009
-131.341	206.642	-0.065	0.099
-130.326	-200.000	0.007	0.158
-129.312	-165.191	0.187	-0.008
-128.297	178.730	-0.129	0.184
-127.283	563.081	0.078	-0.185
-126.268	7.923	-0.100	-0.074
-125.253	-200.000	0.001	-0.420
-124.239	-42.924	0.238	0.119
-123.224	134.860	0.113	-0.144
-122.210	-176.679	-0.293	0.007
