DTS Sentinel unit serial number:	SN413079Multiplexer serial number:	ORYXHardware model number:	OX4-SRSoftware version number:	ORYX F/W v4.00 Oryx Data Collector v3.7.2.0data status	okinstallation	princeton_trtdifferential loss correction	single-endedforward channel	channel 1reverse channel	N/Adate	2019/09/19time	02:02:36forward acquisition time	60.00reverse acquisition time	0.00gamma	496.2192k internal	0.2344k external	0.2344temperature offset calibration	1.0018default loss term (dB/km)	0.3790temperature slope calibration	1.0000multiplexer offset coefficient	1.0000multiplexer slope coefficient	1.0000fibre end	0.00T internal ref (°C)	21.25T ext. ref 1 (°C)	0.70T ext. ref 2 (°C)	14.88length (m)	temperature (°C)	Stokes	anti-Stokes-747.200	-185.085	-0.208	-0.003
-746.185	416.841	-0.104	-0.222
-745.171	256.398	-0.082	-0.141
-744.156	197.358	0.087	-0.133
-743.142	61.107	-0.107	-0.106
-742.127	800.000	-0.068	0.216
-741.112	-109.534	0.411	0.087
-740.098	800.000	0.082	0.301
-739.083	-200.000	0.036	-0.275
-738.069	-200.000	-0.039	0.284
-737.054	-74.020	-0.349	0.127
-736.039	29.365	0.111	-0.094
-735.025	3.719	-0.303	0.221
-734.010	-171.739	0.098	0.003
-732.996	305.724	-0.141	0.262
-731.981	562.473	-0.063	-0.152
-730.966	89.694	0.085	0.095
-729.952	-49.782	-0.314	0.149
-728.937	-84.414	-0.212	-0.067
-727.923	50.559	-0.286	-0.271
-726.908	288.579	-0.285	0.517
-725.894	-44.346	0.109	-0.055
-724.879	50.377	-0.118	-0.112
-723.864	-101.198	-0.150	-0.037
-722.850	-164.203	-0.312	-0.014
-721.835	-194.997	-0.160	-0.001
-720.821	-0.077	-0.291	0.207
-719.806	105.982	0.128	-0.151
-718.791	800.000	-0.202	-0.605
-717.777	373.916	-0.113	-0.230
-716.762	-34.998	0.137	-0.075
-715.748	-200.000	0.020	0.119
-714.733	-159.528	0.304	-0.017
-713.718	261.786	-0.097	-0.169
-712.704	-69.492	-0.168	0.064
-711.689	-32.937	-0.225	-0.125
-710.675	-22.341	-0.371	0.225
-709.660	113.985	0.338	-0.411
-708.645	-200.000	0.011	0.060
-707.631	-200.000	-0.008	-0.040
-706.616	-200.000	0.001	0.181
-705.602	749.799	0.155	0.418
-704.587	800.000	0.110	-0.379
-703.572	-39.517	0.099	0.052
-702.558	-36.738	-0.104	-0.056
-701.543	-29.260	-0.295	0.169
-700.529	236.343	-0.049	-0.081
-699.514	-200.000	-0.001	0.085
-698.499	800.000	-0.102	-0.306
-697.485	41.432	0.229	0.207
-696.470	100.601	0.286	0.332
-695.456	800.000	0.076	0.222
-694.441	800.000	-0.076	-0.269
-693.426	497.410	-0.165	-0.379
-692.412	62.704	-0.049	0.049
-691.397	-200.000	0.051	-0.362
-690.383	62.747	-0.198	-0.197
-689.368	-200.000	-0.096	-0.539
-688.354	-141.400	0.134	0.014
-687.339	800.000	-0.074	-0.295
-686.324	-72.645	0.150	0.055
-685.310	117.037	0.019	0.024
-684.295	-179.782	0.173	0.004
-683.281	63.887	-0.138	-0.138
-682.266	-48.668	0.115	0.055
-681.251	800.000	-0.033	-0.103
-680.237	289.414	0.039	-0.071
-679.222	-200.000	-0.134	0.000
-678.208	800.000	0.106	0.394
-677.193	-200.000	-0.048	0.219
-676.178	-24.948	0.213	-0.126
-675.164	-53.520	-0.261	-0.119
-674.149	11.800	-0.180	0.138
-673.135	-166.954	-0.123	0.005
-672.120	-105.781	-0.088	0.020
-671.105	213.855	-0.157	0.248
-670.091	-200.000	-0.001	0.360
-669.076	-200.000	-0.013	0.247
-668.062	715.339	0.145	0.384
-667.047	-40.801	-0.248	-0.128
-666.032	-112.772	-0.312	-0.062
-665.018	23.970	-0.225	-0.185
-664.003	247.393	0.151	-0.254
-662.989	-200.000	0.017	0.186
-661.974	166.458	-0.129	0.183
-660.959	105.978	0.141	-0.166
-659.945	-200.000	0.042	-0.326
-658.930	593.229	-0.184	-0.455
-657.916	-10.795	-0.228	0.150
-656.901	-96.213	-0.293	0.078
-655.886	283.682	-0.146	-0.262
-654.872	-200.000	-0.002	0.247
-653.857	-25.989	-0.126	-0.074
-652.843	-200.000	-0.041	0.302
-651.828	106.252	-0.243	-0.288
-650.814	-200.000	0.015	-0.106
-649.799	24.979	0.261	0.215
-648.784	141.414	0.160	-0.211
-647.770	68.094	0.257	0.262
-646.755	-200.000	-0.024	-0.243
-645.741	11.232	0.141	-0.107
-644.726	800.000	0.049	0.153
-643.711	114.581	0.361	-0.438
-642.697	123.954	-0.142	-0.177
-641.682	79.479	-0.046	-0.049
-640.668	-86.942	0.174	-0.053
-639.653	-3.218	0.102	0.071
-638.638	61.256	-0.125	0.124
-637.624	129.008	0.060	0.076
-636.609	800.000	0.110	0.454
-635.595	-89.471	-0.389	-0.114
-634.580	665.823	-0.048	-0.123
-633.565	152.865	0.128	-0.174
-632.551	-64.632	0.142	-0.058
-631.536	646.938	0.057	0.146
-630.522	-84.441	-0.106	0.033
-629.507	-200.000	-0.031	0.492
-628.492	178.741	0.156	-0.227
-627.478	800.000	-0.014	-0.059
-626.463	767.023	-0.082	0.221
-625.449	-163.445	-0.210	0.010
-624.434	373.592	0.074	-0.149
-623.419	-156.895	-0.347	-0.021
-622.405	-96.237	0.323	-0.085
-621.390	800.000	-0.081	0.246
-620.376	-124.239	0.102	0.016
-619.361	-13.693	-0.303	-0.195
-618.346	-122.669	-0.188	0.030
-617.332	-9.285	-0.330	-0.219
-616.317	-43.484	-0.168	-0.085
-615.303	506.465	-0.084	-0.193
-614.288	45.027	-0.037	-0.034
-613.273	-81.240	0.222	-0.073
-612.259	-43.892	-0.298	-0.149
-611.244	272.066	0.040	-0.069
-610.230	-5.175	0.147	-0.101
-609.215	56.363	-0.218	-0.211
-608.201	116.099	-0.355	0.433
-607.186	491.752	0.153	-0.348
-606.171	22.546	0.133	0.108
-605.157	800.000	-0.114	0.455
-604.142	-37.223	-0.203	-0.108
-603.128	318.326	0.088	0.165
-602.113	403.989	0.017	-0.036
-601.098	89.941	-0.110	-0.122
-600.084	-80.002	0.117	-0.039
-599.069	252.323	0.168	0.286
-598.055	743.927	0.011	-0.028
-597.040	-87.704	-0.168	0.050
-596.025	-200.000	-0.024	-0.159
-595.011	208.055	-0.054	0.084
-593.996	-200.000	-0.011	0.144
-592.982	-123.187	-0.271	0.043
-591.967	-71.105	0.264	-0.099
-590.952	-57.619	-0.228	-0.099
-589.938	1.581	-0.200	0.143
-588.923	-5.192	0.105	-0.072
-587.909	-200.000	0.019	0.304
-586.894	65.212	-0.175	0.176
-585.879	103.538	0.151	0.177
-584.865	108.217	0.162	0.192
-583.850	-50.405	0.126	0.059
-582.836	249.305	-0.035	-0.059
-581.821	728.499	0.091	0.242
-580.806	-145.815	-0.084	-0.007
-579.792	47.185	0.086	-0.079
-578.777	-69.402	-0.278	-0.106
-577.763	200.868	0.238	-0.364
-576.748	204.695	0.026	0.040
-575.733	800.000	-0.102	0.361
-574.719	-33.230	-0.316	-0.174
-573.704	-46.682	-0.168	-0.082
-572.690	579.976	0.060	0.146
-571.675	68.074	-0.156	-0.159
-570.661	-200.000	0.015	0.066
-569.646	16.513	0.140	-0.110
-568.631	-71.897	-0.481	-0.178
-567.617	800.000	-0.044	0.158
-566.602	720.712	-0.054	0.143
-565.588	-114.413	0.158	0.030
-564.573	505.396	-0.029	-0.068
-563.558	-67.096	0.265	0.104
-562.544	-20.306	0.287	0.176
-561.529	800.000	-0.095	0.291
-560.515	260.865	-0.204	0.350
-559.500	-19.380	0.305	-0.188
-558.485	271.197	-0.058	-0.102
-557.471	-162.243	-0.173	0.009
-556.456	29.553	-0.176	0.149
-555.442	434.451	0.061	0.132
-554.427	-13.747	0.223	0.143
-553.412	-30.414	-0.122	0.069
-552.398	34.938	0.097	0.085
-551.383	-109.789	-0.163	0.034
-550.369	-184.920	-0.067	0.001
-549.354	-200.000	0.006	-0.195
-548.339	-24.351	0.072	-0.043
-547.325	800.000	-0.044	0.174
-546.310	82.795	-0.125	0.134
-545.296	-49.593	-0.083	0.039
-544.281	55.632	-0.313	0.301
-543.266	-191.615	0.086	0.001
-542.252	102.453	-0.055	-0.064
-541.237	-177.259	-0.167	0.004
-540.223	90.485	0.272	-0.303
-539.208	-95.481	-0.312	-0.083
-538.193	-67.888	0.385	-0.149
-537.179	-200.000	0.042	0.334
-536.164	-35.192	-0.182	-0.098
-535.150	121.751	-0.011	-0.014
-534.135	426.586	0.041	0.089
-533.121	-200.000	-0.051	0.295
-532.106	15.180	-0.102	0.079
-531.091	-200.000	-0.010	-0.123
-530.077	-154.707	-0.059	0.004
-529.062	-108.344	-0.388	0.083
-528.048	407.045	-0.163	-0.342
-527.033	-91.151	-0.152	-0.043
-526.018	-200.000	0.051	0.285
-525.004	-44.685	0.319	-0.158
-523.989	148.713	0.033	0.045
-522.975	-122.756	-0.359	-0.058
-521.960	200.746	-0.071	0.109
-520.945	-17.834	-0.086	-0.054
-519.931	494.979	0.083	-0.188
-518.916	-94.195	-0.172	0.047
-517.902	252.869	0.134	-0.227
-516.887	-156.017	0.180	-0.011
-515.872	44.102	-0.293	0.266
-514.858	-200.000	0.000	-0.343
-513.843	-24.877	0.099	-0.058
-512.829	152.167	-0.217	-0.293
-511.814	-136.181	0.187	-0.022
-510.799	-200.000	-0.007	0.068
-509.785	800.000	-0.057	0.206
-508.770	-56.006	0.150	-0.066
-507.756	19.246	-0.167	-0.133
-506.741	192.925	-0.053	0.079
-505.726	-78.982	-0.116	-0.039
-504.712	148.769	-0.248	-0.332
-503.697	78.697	-0.149	-0.158
-502.683	321.479	0.123	-0.232
-501.668	-77.042	0.140	0.049
-500.653	-200.000	0.023	0.171
-499.639	501.307	-0.095	-0.217
-498.624	20.034	-0.076	-0.061
-497.610	66.225	0.079	-0.079
-496.595	54.446	-0.191	0.183
-495.581	352.273	-0.025	-0.049
-494.566	-200.000	0.020	-0.203
-493.551	-47.386	0.148	-0.071
-492.537	18.632	0.121	0.096
-491.522	800.000	0.073	0.238
-490.508	498.452	-0.023	0.051
-489.493	150.035	-0.080	0.107
-488.478	429.029	0.106	-0.227
-487.464	-144.083	-0.125	0.012
-486.449	368.749	-0.052	-0.105
-485.435	-88.544	-0.232	-0.069
-484.420	-24.178	-0.288	0.171
-483.405	95.925	-0.183	-0.208
-482.391	-85.456	-0.224	-0.069
-481.376	323.577	-0.095	0.180
-480.362	241.591	0.127	-0.211
-479.347	51.956	-0.116	-0.110
-478.332	-60.891	-0.217	-0.091
-477.318	305.186	0.144	-0.265
-476.303	383.351	0.132	0.269
-475.289	80.236	-0.116	-0.124
-474.274	-5.626	0.202	0.137
-473.259	-23.467	-0.416	-0.247
-472.245	-109.549	-0.163	-0.034
-471.230	-171.130	0.102	0.003
-470.216	-38.273	-0.098	0.052
-469.201	800.000	-0.055	-0.224
-468.186	3.844	0.221	-0.160
-467.172	-45.109	0.052	0.026
-466.157	51.588	-0.116	0.110
-465.143	319.938	0.115	0.216
-464.128	-200.000	-0.003	0.086
-463.113	360.343	0.097	0.192
-462.099	800.000	0.093	0.290
-461.084	51.389	-0.289	-0.271
-460.070	208.886	0.226	-0.349
-459.055	160.354	-0.277	0.382
-458.040	-200.000	-0.006	-0.038
-457.026	-111.276	0.293	0.059
-456.011	-140.493	0.230	0.024
-454.997	-79.306	-0.097	0.033
-453.982	492.149	0.057	-0.130
-452.968	-129.123	-0.092	-0.013
-451.953	74.303	-0.169	0.176
-450.938	-200.000	-0.007	-0.364
-449.924	-100.742	-0.239	-0.058
-448.909	-200.000	-0.009	-0.121
-447.895	214.346	0.085	0.134
-446.880	-77.790	-0.190	0.065
-445.865	800.000	0.108	0.310
-444.851	127.510	0.135	-0.169
-443.836	-200.000	0.021	0.455
-442.822	-200.000	-0.015	-0.162
-441.807	31.134	0.222	0.188
-440.792	-194.044	0.180	-0.001
-439.778	-200.000	0.002	-0.036
-438.763	493.211	0.049	0.112
-437.749	103.291	-0.370	0.429
-436.734	-126.763	0.164	0.024
-435.719	-16.204	-0.145	-0.091
-434.705	329.347	0.030	-0.057
-433.690	40.975	0.087	-0.078
-432.676	-93.573	-0.126	0.034
-431.661	800.000	0.024	-0.097
-430.646	800.000	-0.055	-0.154
-429.632	-200.000	-0.047	-0.333
-428.617	-161.369	-0.142	0.007
-427.603	112.681	0.121	0.145
-426.588	-140.817	0.238	0.024
-425.573	136.776	0.188	-0.243
-424.559	588.740	0.090	-0.219
-423.544	636.378	-0.061	-0.152
-422.530	-200.000	-0.083	0.370
-421.515	-169.680	0.121	-0.004
-420.500	-119.514	0.218	0.037
-419.486	-124.574	-0.089	0.014
-418.471	-173.809	0.066	0.002
-417.457	-12.492	-0.097	-0.063
-416.442	-48.793	0.325	0.154
-415.428	-200.000	0.034	0.165
-414.413	332.823	-0.155	-0.295
-413.398	113.393	-0.077	-0.092
-412.384	800.000	0.031	0.130
-411.369	71.574	-0.252	-0.259
-410.355	87.838	0.049	-0.054
-409.340	448.256	-0.043	0.094
-408.325	123.050	-0.279	0.345
-407.311	-128.721	-0.241	0.034
-406.296	-69.866	-0.175	-0.066
-405.282	-135.705	0.170	-0.020
-404.267	-79.740	-0.236	0.078
-403.252	134.161	-0.185	-0.237
-402.238	-200.000	-0.043	-0.319
-401.223	-200.000	-0.003	-0.240
-400.209	-95.780	0.175	0.046
-399.194	-128.853	-0.131	0.018
-398.179	800.000	0.163	0.503
-397.165	-108.176	-0.110	0.024
-396.150	-37.624	0.280	-0.147
-395.136	168.921	-0.231	0.325
-394.121	270.591	-0.095	0.164
-393.106	546.938	-0.130	0.307
-392.092	-200.000	0.009	0.401
-391.077	0.189	-0.353	-0.248
-390.063	-26.368	0.282	0.163
-389.048	-170.989	-0.147	-0.005
-388.033	-114.768	0.127	0.024
-387.019	-55.638	0.049	-0.022
-386.004	-0.497	-0.096	0.068
-384.990	800.000	-0.099	0.393
-383.975	-77.726	0.014	-0.005
-382.960	74.236	-0.140	-0.145
-381.946	262.156	0.075	-0.128
-380.931	-125.749	0.209	-0.031
-379.917	196.982	-0.125	0.188
-378.902	-200.000	0.015	-0.272
-377.888	297.456	-0.175	0.317
-376.873	81.025	0.036	0.038
-375.858	138.888	0.150	-0.195
-374.844	266.861	0.168	-0.289
-373.829	-78.644	-0.203	-0.068
-372.815	-106.762	0.290	0.064
-371.800	800.000	-0.093	-0.258
-370.785	395.197	0.076	-0.156
-369.771	-99.237	-0.142	0.035
-368.756	90.165	-0.163	0.180
-367.742	-112.659	0.033	0.007
-366.727	-82.024	0.242	0.078
-365.712	480.519	0.086	-0.193
-364.698	-23.388	0.246	-0.146
-363.683	800.000	0.063	-0.180
-362.669	2.897	0.162	0.116
-361.654	-176.248	0.126	-0.003
-360.639	156.984	-0.221	0.301
-359.625	0.516	0.308	-0.217
-358.610	-105.217	-0.227	0.051
-357.596	39.491	0.120	-0.106
-356.581	99.800	-0.184	-0.210
-355.566	800.000	0.060	0.205
-354.552	118.984	0.142	-0.172
-353.537	333.859	-0.070	0.134
-352.523	800.000	0.091	0.305
-351.508	-20.417	0.315	0.191
-350.493	304.382	-0.047	-0.087
-349.479	800.000	0.073	-0.268
-348.464	106.017	-0.186	0.217
-347.450	-80.235	-0.064	-0.021
-346.435	-99.541	0.081	0.020
-345.420	694.244	-0.022	0.056
-344.406	108.438	0.074	-0.086
-343.391	208.657	0.063	-0.098
-342.377	-117.338	0.131	-0.023
-341.362	-200.000	0.005	0.177
-340.348	-200.000	0.010	-0.333
-339.333	-117.524	0.381	-0.068
-338.318	-142.141	0.123	-0.012
-337.304	-142.148	-0.228	0.022
-336.289	200.121	-0.087	-0.132
-335.275	213.447	0.073	0.114
-334.260	25.432	-0.140	0.114
-333.245	-200.000	0.077	-0.395
-332.231	149.368	-0.174	-0.232
-331.216	800.000	0.052	0.210
-330.202	128.502	-0.193	0.242
-329.187	-0.835	-0.130	0.091
-328.172	152.621	0.203	-0.273
-327.158	1.764	0.325	0.231
-326.143	-200.000	0.034	-0.284
-325.129	140.297	0.143	0.185
-324.114	800.000	0.038	-0.165
-323.099	800.000	0.048	-0.138
-322.085	-200.000	-0.011	0.385
-321.070	-1.797	0.050	0.034
-320.056	-200.000	0.045	-0.318
-319.041	-200.000	-0.063	0.280
-318.026	200.737	0.029	-0.044
-317.012	59.958	0.329	0.320
-315.997	-40.968	0.105	-0.053
-314.983	0.006	-0.173	0.121
-313.968	127.541	-0.119	0.149
-312.953	-55.292	0.189	0.083
-311.939	394.653	0.116	0.237
-310.924	-83.515	0.074	-0.023
-309.910	800.000	-0.070	-0.254
-308.895	-30.373	-0.030	0.017
-307.880	38.649	-0.108	-0.095
-306.866	186.488	0.076	0.112
-305.851	409.888	-0.053	-0.111
-304.837	-24.239	0.150	0.088
-303.822	-67.082	-0.068	-0.026
-302.807	220.304	-0.137	-0.216
-301.793	89.480	-0.188	0.206
-300.778	-32.643	0.333	-0.182
-299.764	375.515	0.057	-0.115
-298.749	-200.000	-0.003	-0.178
-297.735	-73.005	0.430	0.155
-296.720	800.000	0.037	-0.113
-295.705	-29.508	-0.218	0.123
-294.691	179.632	0.115	-0.165
-293.676	51.254	0.111	-0.104
-292.662	-17.156	0.145	-0.090
-291.647	-138.749	0.221	0.024
-290.632	1.338	0.047	-0.033
-289.618	202.690	-0.116	-0.176
-288.603	-200.000	0.016	-0.154
-287.589	-1.583	0.180	0.124
-286.574	148.441	0.161	0.213
-285.559	224.293	-0.035	0.056
-284.545	-200.000	-0.005	-0.030
-283.530	-200.000	0.150	0.000
-282.516	800.000	0.052	0.150
-281.501	-200.000	0.015	0.187
-280.486	75.130	0.039	0.041
-279.472	51.626	-0.115	-0.107
-278.457	35.309	0.178	0.153
-277.443	800.000	0.065	0.242
-276.428	63.194	-0.296	0.291
-275.413	800.000	-0.102	0.296
-274.399	268.291	0.057	0.098
-273.384	155.195	0.067	0.091
-272.370	-113.093	0.358	-0.069
-271.355	-36.831	0.304	0.160
-270.340	-53.410	-0.257	0.116
-269.326	800.000	0.035	-0.120
-268.311	252.122	-0.100	0.167
-267.297	81.464	0.149	-0.158
-266.282	50.983	-0.150	-0.140
-265.267	-65.782	-0.284	0.112
-264.253	-71.340	-0.350	0.129
-263.238	277.790	-0.038	-0.066
-262.224	631.738	-0.054	-0.133
-261.209	-200.000	0.027	-0.150
-260.195	35.416	0.202	-0.174
-259.180	-35.188	0.281	-0.150
-258.165	314.880	0.115	-0.213
-257.151	800.000	0.129	-0.513
-256.136	28.464	0.073	0.061
-255.122	253.181	0.048	0.081
-254.107	-112.717	0.134	-0.026
-253.092	800.000	0.042	0.174
-252.078	800.000	0.070	-0.293
-251.063	33.481	-0.295	-0.252
-250.049	-200.000	-0.069	-0.354
-249.034	800.000	-0.027	-0.090
-248.019	-200.000	0.005	0.069
-247.005	-200.000	-0.048	-0.226
-245.990	-200.000	-0.057	-0.308
-244.976	186.004	0.114	-0.167
-243.961	-159.649	-0.260	-0.014
-242.946	-47.031	0.368	0.176
-241.932	800.000	-0.045	-0.182
-240.917	-179.457	-0.146	-0.003
-239.903	-65.067	0.566	-0.224
-238.888	448.706	0.145	0.314
-237.873	800.000	0.046	0.134
-236.859	113.733	-0.128	0.153
-235.844	2.696	-0.204	0.145
-234.830	800.000	-0.006	-0.025
-233.815	-59.701	-0.206	0.086
-232.800	-3.819	0.135	0.092
-231.786	-200.000	-0.034	0.270
-230.771	65.599	0.229	0.227
-229.757	-135.925	0.397	0.046
-228.742	48.380	-0.144	0.132
-227.727	-35.033	-0.091	-0.048
-226.713	107.823	0.288	0.337
-225.698	-200.000	0.019	0.135
-224.684	57.700	-0.136	-0.131
-223.669	-200.000	-0.001	-0.103
-222.655	82.019	0.361	-0.384
-221.640	34.242	0.176	0.150
-220.625	182.619	0.053	0.077
-219.611	44.208	-0.061	-0.055
-218.596	221.670	0.125	0.198
-217.582	493.101	0.099	0.223
-216.567	-70.401	-0.119	0.044
-215.552	-120.425	-0.107	-0.018
-214.538	-95.830	0.265	-0.069
-213.523	-200.000	-0.057	-0.465
-212.509	-200.000	0.036	-0.248
-211.494	309.753	0.115	0.211
-210.479	93.722	0.329	0.365
-209.465	-61.456	0.163	-0.067
-208.450	228.546	0.075	-0.120
-207.436	-158.314	0.052	-0.003
-206.421	63.392	0.267	-0.263
-205.406	274.070	0.047	0.081
-204.392	455.461	0.038	-0.082
-203.377	-61.069	-0.288	0.119
-202.363	-3.097	-0.360	-0.246
-201.348	288.673	-0.042	-0.075
-200.333	291.092	-0.049	-0.087
-199.319	-200.000	-0.119	-0.645
-198.304	-187.042	-0.179	-0.002
-197.290	-13.756	-0.126	0.080
-196.275	130.103	0.073	-0.091
-195.260	-33.584	-0.231	-0.125
-194.246	-96.007	-0.160	-0.042
-193.231	-192.411	0.082	0.001
-192.217	137.266	0.207	-0.266
-191.202	-93.309	-0.294	0.080
-190.187	531.830	0.187	0.434
-189.173	-106.807	0.345	0.075
-188.158	-93.719	-0.301	-0.081
-187.144	-110.995	-0.099	0.020
-186.129	287.354	-0.196	0.347
-185.114	800.000	0.096	0.310
-184.100	-134.995	-0.035	-0.004
-183.085	-200.000	-0.051	-0.234
-182.071	-171.546	0.125	-0.004
-181.056	-56.864	0.128	-0.056
-180.042	-200.000	-0.044	-0.441
-179.027	58.640	-0.282	0.271
-178.012	261.728	0.038	-0.064
-176.998	-200.000	0.019	0.162
-175.983	189.821	0.277	0.406
-174.969	-200.000	-0.029	-0.326
-173.954	-200.000	0.050	-0.299
-172.939	-40.401	0.135	0.069
-171.925	-182.405	-0.179	0.003
-170.910	14.998	0.094	-0.072
-169.896	51.814	-0.098	0.091
-168.881	168.503	-0.063	-0.087
-167.866	694.518	0.034	-0.088
-166.852	-91.077	0.196	-0.055
-165.837	-135.288	-0.136	-0.016
-164.823	648.151	0.058	-0.145
-163.808	-118.573	-0.124	0.021
-162.793	188.152	0.130	0.190
-161.779	416.049	0.106	0.221
-160.764	71.325	0.163	-0.165
-159.750	800.000	0.064	-0.226
-158.735	-75.206	-0.101	0.035
-157.720	89.889	0.109	0.119
-156.706	283.413	-0.172	0.302
-155.691	-51.864	-0.186	0.085
-154.677	800.000	-0.032	0.116
-153.662	207.759	0.254	0.388
-152.647	800.000	-0.155	-0.489
-151.633	51.658	-0.189	0.176
-150.618	95.256	0.220	-0.246
-149.604	-98.499	-0.072	-0.018
-148.589	133.376	-0.221	-0.279
-147.574	-43.236	0.081	-0.040
-146.560	-44.648	-0.137	-0.067
-145.545	102.226	0.035	0.040
-144.531	-145.005	-0.143	0.013
-143.516	601.605	-0.047	-0.115
-142.502	-200.000	0.023	0.520
-141.487	-45.836	0.260	-0.126
-140.472	800.000	0.048	0.198
-139.458	-200.000	-0.012	0.075
-138.443	454.774	-0.095	0.206
-137.429	-16.716	-0.261	0.162
-136.414	36.665	0.208	-0.179
-135.399	-48.798	0.405	-0.190
-134.385	800.000	0.101	0.362
-133.370	-200.000	-0.015	-0.243
-132.356	-107.207	0.240	-0.052
-131.341	-60.688	0.140	-0.058
-130.326	-19.305	0.198	-0.120
-129.312	-200.000	-0.000	-0.061
-128.297	-200.000	0.049	0.211
-127.283	10.591	-0.104	0.077
-126.268	-124.234	-0.138	-0.021
-125.253	0.727	-0.132	-0.092
-124.239	538.704	-0.109	0.252
-123.224	-69.460	-0.210	-0.079
-122.210	-90.017	-0.237	-0.067
-121.195	-61.982	0.153	-0.062
