DTS Sentinel unit serial number:	SN413079Multiplexer serial number:	ORYXHardware model number:	OX4-SRSoftware version number:	ORYX F/W v4.00 Oryx Data Collector v3.7.2.0data status	okinstallation	princeton_trtdifferential loss correction	single-endedforward channel	channel 1reverse channel	N/Adate	2019/09/11time	19:00:11forward acquisition time	60.00reverse acquisition time	0.00gamma	496.2192k internal	0.2292k external	0.2292temperature offset calibration	1.0014default loss term (dB/km)	0.3790temperature slope calibration	1.0000multiplexer offset coefficient	1.0000multiplexer slope coefficient	1.0000fibre end	0.00T internal ref (°C)	42.31T ext. ref 1 (°C)	1.26T ext. ref 2 (°C)	34.60length (m)	temperature (°C)	Stokes	anti-Stokes-747.200	-26.522	-0.293	0.176
-746.185	-200.000	0.066	0.423
-745.171	-7.131	-0.218	0.152
-744.156	-200.000	-0.002	0.249
-743.142	-84.527	0.103	0.033
-742.127	-15.521	-0.304	0.199
-741.112	-20.524	0.295	-0.185
-740.098	45.752	0.045	-0.043
-739.083	-200.000	0.003	-0.128
-738.069	800.000	0.018	0.064
-737.054	182.300	0.246	0.372
-736.039	525.337	-0.097	0.235
-735.025	-200.000	0.054	0.350
-734.010	169.829	-0.179	-0.262
-732.996	-200.000	0.029	0.167
-731.981	800.000	-0.093	0.276
-730.966	800.000	-0.080	0.310
-729.952	280.428	-0.283	-0.517
-728.937	-60.929	-0.212	-0.092
-727.923	218.199	-0.139	0.226
-726.908	-200.000	0.007	0.274
-725.894	174.772	0.075	0.111
-724.879	-200.000	-0.053	-0.247
-723.864	-117.848	-0.094	0.017
-722.850	19.356	-0.302	-0.248
-721.835	-200.000	-0.013	-0.177
-720.821	-200.000	-0.038	0.446
-719.806	204.027	-0.154	-0.244
-718.791	-200.000	-0.017	0.391
-717.777	210.009	-0.084	0.134
-716.762	232.914	-0.045	0.076
-715.748	-13.251	-0.162	-0.107
-714.733	302.210	0.101	0.192
-713.718	-30.899	0.190	0.110
-712.704	-37.042	0.067	0.037
-711.689	-200.000	-0.013	-0.288
-710.675	800.000	0.048	0.158
-709.660	-152.815	0.111	-0.008
-708.645	800.000	0.072	-0.221
-707.631	154.778	0.052	-0.074
-706.616	-109.318	-0.183	0.040
-705.602	-106.165	-0.475	0.109
-704.587	-23.695	-0.169	-0.103
-703.572	-111.344	0.116	-0.024
-702.558	-83.481	-0.157	0.051
-701.543	210.275	-0.189	0.303
-700.529	800.000	0.045	0.174
-699.514	800.000	0.038	0.135
-698.499	45.577	-0.130	0.123
-697.485	-83.896	-0.086	0.028
-696.470	360.427	-0.145	-0.298
-695.456	-200.000	0.015	-0.109
-694.441	-200.000	-0.075	0.430
-693.426	709.031	0.162	-0.437
-692.412	105.531	-0.090	0.109
-691.397	-200.000	-0.008	-0.093
-690.383	-200.000	-0.062	-0.309
-689.368	-138.171	-0.044	0.005
-688.354	-200.000	-0.014	0.075
-687.339	-137.017	-0.317	0.037
-686.324	41.201	-0.072	-0.067
-685.310	-33.285	-0.070	-0.040
-684.295	281.173	0.163	-0.299
-683.281	-200.000	0.060	-0.560
-682.266	-49.076	-0.162	-0.079
-681.251	24.753	-0.031	0.027
-680.237	37.631	-0.281	-0.255
-679.222	-200.000	-0.061	-0.392
-678.208	209.487	-0.111	0.177
-677.193	370.519	0.047	-0.098
-676.178	11.978	0.194	0.152
-675.164	-200.000	-0.030	-0.237
-674.149	-145.736	-0.387	-0.035
-673.135	-43.619	0.280	-0.144
-672.120	80.441	0.128	0.141
-671.105	-200.000	-0.022	0.100
-670.091	-200.000	0.039	0.271
-669.076	512.211	-0.049	-0.117
-668.062	-154.593	-0.060	-0.004
-667.047	677.415	-0.053	0.141
-666.032	-128.150	-0.149	0.022
-665.018	800.000	0.039	0.113
-664.003	564.132	-0.094	0.232
-662.989	-2.030	0.286	0.205
-661.974	80.333	-0.237	-0.260
-660.959	41.716	0.062	0.058
-659.945	-20.376	-0.290	-0.182
-658.930	120.801	-0.058	-0.074
-657.916	-46.928	-0.195	-0.097
-656.901	181.138	-0.156	0.234
-655.886	-200.000	-0.080	-0.394
-654.872	-200.000	0.001	0.062
-653.857	800.000	-0.106	0.305
-652.843	-124.510	0.315	-0.050
-651.828	223.669	0.239	-0.394
-650.814	93.824	-0.237	-0.274
-649.799	-90.759	-0.577	-0.170
-648.784	329.280	-0.196	0.384
-647.770	-42.591	0.088	-0.046
-646.755	-200.000	-0.054	-0.249
-645.741	365.967	-0.055	-0.113
-644.726	-28.695	0.316	0.185
-643.711	-200.000	-0.060	0.484
-642.697	410.867	-0.066	-0.143
-641.682	-44.653	0.284	0.145
-640.668	-200.000	-0.003	0.345
-639.653	-9.804	0.313	0.212
-638.638	-138.672	0.240	-0.027
-637.624	133.570	0.164	0.217
-636.609	-161.256	0.356	0.019
-635.595	107.171	0.093	-0.113
-634.580	758.125	0.104	0.287
-633.565	-132.640	0.449	-0.059
-632.551	-120.997	0.255	-0.044
-631.536	30.604	-0.289	-0.252
-630.522	800.000	-0.063	0.221
-629.507	571.781	-0.032	0.079
-628.492	75.893	0.065	-0.070
-627.478	190.320	-0.164	0.252
-626.463	243.755	-0.048	0.082
-625.449	-74.182	0.149	-0.055
-624.434	99.926	0.194	-0.229
-623.419	800.000	0.072	0.271
-622.405	92.504	0.240	-0.276
-621.390	-147.631	-0.068	-0.006
-620.376	800.000	0.086	-0.279
-619.361	50.837	-0.158	-0.153
-618.346	-42.632	-0.306	0.159
-617.332	381.195	0.040	0.084
-616.317	-122.959	-0.123	0.020
-615.303	174.649	-0.136	0.200
-614.288	800.000	-0.087	0.270
-613.273	13.763	0.239	0.190
-612.259	78.290	-0.336	0.366
-611.244	34.316	0.049	-0.043
-610.230	-48.476	-0.255	-0.125
-609.215	-43.505	-0.307	0.158
-608.201	-66.722	0.113	0.045
-607.186	119.796	0.057	0.072
-606.171	-20.365	-0.163	0.102
-605.157	18.328	-0.151	-0.123
-604.142	20.310	-0.121	0.099
-603.128	-93.792	-0.361	0.101
-602.113	21.798	0.388	-0.322
-601.098	-39.146	0.352	-0.188
-600.084	-83.548	0.192	-0.062
-599.069	-200.000	-0.001	-0.347
-598.055	518.048	0.052	-0.123
-597.040	74.186	-0.222	-0.237
-596.025	49.091	0.052	-0.050
-595.011	-200.000	-0.093	0.000
-593.996	-101.084	-0.222	0.055
-592.982	-200.000	0.032	0.216
-591.967	-200.000	0.002	0.221
-590.952	-108.428	0.204	0.045
-589.938	13.101	-0.332	-0.261
-588.923	-30.665	0.082	-0.047
-587.909	-200.000	-0.022	-0.232
-586.894	800.000	0.029	-0.100
-585.879	-200.000	-0.017	-0.120
-584.865	-200.000	-0.017	0.107
-583.850	-123.518	0.122	-0.020
-582.836	-178.632	-0.219	0.005
-581.821	746.828	-0.113	-0.311
-580.806	800.000	0.112	-0.343
-579.792	-200.000	0.040	-0.318
-578.777	-11.148	0.124	0.083
-577.763	-162.790	0.132	-0.007
-576.748	800.000	-0.017	0.061
-575.733	-9.554	-0.145	0.098
-574.719	68.114	0.097	0.100
-573.704	-49.765	-0.009	-0.004
-572.690	-87.459	-0.375	-0.115
-571.675	-200.000	0.014	0.063
-570.661	800.000	-0.150	-0.469
-569.646	-200.000	-0.008	0.230
-568.631	-183.186	-0.311	-0.006
-567.617	429.163	-0.060	-0.133
-566.602	-137.072	-0.139	-0.016
-565.588	800.000	0.119	-0.371
-564.573	-26.624	-0.174	0.104
-563.558	-20.677	-0.349	-0.218
-562.544	35.847	-0.138	-0.123
-561.529	-9.947	-0.063	-0.043
-560.515	-62.275	0.188	-0.080
-559.500	-134.263	-0.307	-0.038
-558.485	541.559	-0.095	-0.231
-557.471	800.000	-0.026	0.080
-556.456	-3.906	0.209	0.147
-555.442	-132.229	-0.034	-0.004
-554.427	800.000	-0.072	-0.255
-553.412	1.330	-0.266	0.194
-552.398	-20.996	0.220	-0.137
-551.383	601.820	-0.063	0.158
-550.369	-44.968	-0.319	-0.161
-549.354	-81.190	-0.357	0.120
-548.339	-57.348	-0.250	-0.111
-547.325	-33.849	-0.140	-0.078
-546.310	-200.000	0.007	-0.161
-545.296	-30.085	-0.382	-0.221
-544.281	-76.026	-0.283	0.101
-543.266	-58.358	-0.338	-0.149
-542.252	-200.000	0.016	0.244
-541.237	205.134	0.087	-0.137
-540.223	10.080	0.139	0.108
-539.208	-17.546	-0.330	0.211
-538.193	208.294	0.066	0.104
-537.179	516.251	0.042	-0.100
-536.164	54.324	0.155	-0.152
-535.150	800.000	-0.069	-0.220
-534.135	95.878	-0.287	0.332
-533.121	-117.438	0.254	0.047
-532.106	-141.772	0.231	0.024
-531.091	-93.425	0.153	0.043
-530.077	-200.000	0.022	-0.213
-529.062	-200.000	-0.009	-0.259
-528.048	9.814	0.123	0.095
-527.033	-200.000	-0.010	0.397
-526.018	212.064	0.049	0.079
-525.004	800.000	0.099	0.302
-523.989	-30.673	0.081	-0.046
-522.975	-192.111	0.216	-0.002
-521.960	-200.000	-0.028	-0.163
-520.945	38.670	-0.195	-0.176
-519.931	-200.000	0.004	0.109
-518.916	431.698	-0.143	0.314
-517.902	60.061	-0.085	-0.085
-516.887	-68.436	0.052	0.021
-515.872	632.445	0.106	-0.274
-514.858	-61.616	0.207	-0.088
-513.843	213.324	0.142	-0.227
-512.829	-200.000	-0.012	0.142
-511.814	-200.000	-0.013	0.130
-510.799	99.732	0.271	0.318
-509.785	737.911	-0.139	0.379
-508.770	0.590	-0.113	-0.082
-507.756	-31.401	-0.264	0.151
-506.741	39.198	-0.135	-0.122
-505.726	290.354	0.111	0.205
-504.712	-69.724	0.141	0.054
-503.697	-17.427	0.268	-0.171
-502.683	-58.224	-0.179	-0.079
-501.668	-162.862	-0.209	-0.010
-500.653	-64.434	-0.340	-0.140
-499.639	144.214	-0.215	0.291
-498.624	121.228	-0.168	0.213
-497.610	-92.666	-0.420	-0.119
-496.595	-31.237	0.175	-0.100
-495.581	-200.000	-0.019	-0.118
-494.566	-90.341	-0.361	-0.106
-493.551	-200.000	-0.006	-0.080
-492.537	-123.899	-0.080	-0.013
-491.522	17.564	-0.181	-0.146
-490.508	-200.000	0.030	0.190
-489.493	-200.000	-0.006	-0.110
-488.478	-9.011	0.249	0.169
-487.464	-145.183	0.059	-0.005
-486.449	284.695	0.132	0.241
-485.435	144.407	0.149	-0.201
-484.420	-58.127	0.063	-0.028
-483.405	-143.936	0.152	-0.014
-482.391	-88.300	0.160	0.049
-481.376	800.000	0.064	-0.221
-480.362	-116.559	-0.230	-0.043
-479.347	93.984	-0.238	-0.273
-478.332	32.602	-0.091	-0.080
-477.318	-200.000	-0.020	0.154
-476.303	-53.207	-0.255	0.119
-475.289	-113.237	0.104	0.021
-474.274	-200.000	0.059	0.353
-473.259	-103.094	0.098	0.024
-472.245	110.752	0.215	0.262
-471.230	800.000	-0.126	-0.383
-470.216	-200.000	0.005	-0.102
-469.201	-18.709	-0.259	-0.164
-468.186	786.052	-0.058	-0.161
-467.172	5.712	0.178	0.133
-466.157	800.000	-0.113	-0.353
-465.143	-63.642	-0.143	0.059
-464.128	484.278	-0.141	-0.326
-463.113	-82.483	0.037	-0.012
-462.099	-72.636	0.165	0.062
-461.084	179.975	-0.199	0.295
-460.070	-164.632	-0.221	-0.010
-459.055	81.639	-0.177	-0.194
-458.040	256.290	-0.029	-0.051
-457.026	-144.163	0.277	0.026
-456.011	251.612	0.100	0.172
-454.997	-31.558	-0.301	0.171
-453.982	247.728	-0.033	0.057
-452.968	80.135	-0.028	0.030
-451.953	10.853	0.087	-0.067
-450.938	91.281	0.142	-0.162
-449.924	-100.527	0.111	0.028
-448.909	-200.000	-0.026	-0.269
-447.895	800.000	0.041	0.124
-446.880	-200.000	-0.003	0.029
-445.865	800.000	-0.024	0.087
-444.851	-121.829	-0.215	0.036
-443.836	297.351	-0.142	-0.264
-442.822	664.810	-0.097	0.253
-441.807	800.000	0.103	0.350
-440.792	448.829	-0.039	-0.086
-439.778	-61.079	0.014	0.006
-438.763	274.664	-0.069	-0.124
-437.749	94.055	0.078	0.089
-436.734	543.143	-0.043	-0.105
-435.719	-149.801	0.148	0.012
-434.705	-11.540	0.066	0.044
-433.690	7.069	0.129	-0.097
-432.676	-200.000	-0.008	0.320
-431.661	33.922	-0.221	-0.195
-430.646	113.297	0.152	-0.186
-429.632	523.864	-0.243	-0.578
-428.617	-99.038	0.321	-0.082
-427.603	-200.000	-0.036	0.168
-426.588	651.014	0.062	-0.160
-425.573	800.000	0.010	-0.041
-424.559	81.808	0.185	0.202
-423.544	-94.356	0.333	-0.092
-422.530	162.244	-0.245	-0.347
-421.515	-200.000	0.022	0.137
-420.500	-141.737	0.170	-0.017
-419.486	-71.156	0.181	0.069
-418.471	186.231	-0.067	0.100
-417.457	800.000	0.103	0.299
-416.442	221.616	0.061	-0.099
-415.428	-82.531	0.143	-0.047
-414.413	-82.282	-0.162	-0.053
-413.398	45.506	0.187	0.175
-412.384	223.540	0.044	0.072
-411.369	505.887	0.097	-0.227
-410.355	35.369	-0.187	0.166
-409.340	-200.000	0.015	-0.252
-408.325	-121.291	0.265	-0.045
-407.311	-99.738	0.284	0.072
-406.296	-200.000	0.000	0.057
-405.282	-62.554	-0.173	0.073
-404.267	170.831	-0.183	0.265
-403.252	-200.000	0.045	0.326
-402.238	-121.521	0.250	-0.042
-401.223	-86.843	0.215	0.066
-400.209	800.000	0.129	0.372
-399.194	82.589	-0.331	-0.363
-398.179	186.745	0.259	0.389
-397.165	-83.377	0.145	-0.047
-396.150	666.004	0.034	-0.088
-395.136	-54.153	-0.385	0.176
-394.121	24.379	0.101	0.084
-393.106	-110.820	-0.150	0.031
-392.092	-123.339	-0.171	-0.028
-391.077	30.743	0.069	-0.060
-390.063	-80.631	0.122	0.041
-389.048	16.419	-0.186	-0.148
-388.033	-200.000	-0.000	-0.217
-387.019	66.164	-0.113	-0.116
-386.004	800.000	-0.047	0.183
-384.990	-136.248	0.021	0.002
-383.975	424.106	0.074	0.160
-382.960	-27.746	-0.210	-0.123
-381.946	97.381	-0.084	-0.097
-380.931	-122.148	0.163	0.027
-379.917	-46.138	0.355	-0.176
-378.902	4.885	-0.072	-0.053
-377.888	-38.465	-0.219	-0.117
-376.873	20.322	0.451	-0.367
-375.858	117.780	0.057	0.071
-374.844	-85.275	0.328	-0.103
-373.829	-119.444	0.117	-0.020
-372.815	75.786	0.046	-0.049
-371.800	71.420	-0.112	0.117
-370.785	89.654	-0.084	0.095
-369.771	467.164	0.079	0.178
-368.756	-67.882	0.179	-0.070
-367.742	129.986	-0.087	0.112
-366.727	800.000	-0.063	-0.269
-365.712	115.325	0.125	0.153
-364.698	-106.736	-0.289	0.065
-363.683	48.724	0.206	0.195
-362.669	730.184	-0.166	0.448
-361.654	800.000	0.059	0.223
-360.639	468.120	0.129	-0.291
-359.625	242.096	0.082	-0.138
-358.610	-42.072	-0.435	0.224
-357.596	-28.689	-0.141	-0.082
-356.581	145.429	-0.059	0.080
-355.566	-200.000	-0.040	-0.188
-354.552	-102.539	-0.145	0.035
-353.537	153.185	0.099	0.136
-352.523	20.883	0.156	0.128
-351.508	345.694	0.104	-0.206
-350.493	149.393	0.310	0.423
-349.479	125.174	-0.193	0.246
-348.464	-81.091	-0.214	-0.071
-347.450	-43.207	-0.159	-0.081
-346.435	-4.277	-0.079	-0.055
-345.420	-95.812	-0.287	-0.077
-344.406	-200.000	0.002	-0.030
-343.391	7.607	0.160	-0.120
-342.377	-60.045	0.371	0.160
-341.362	-144.799	0.214	-0.020
-340.348	-53.445	0.192	-0.089
-339.333	299.014	-0.127	-0.235
-338.318	118.804	0.062	-0.078
-337.304	-149.682	0.499	0.040
-336.289	-196.607	-0.180	-0.001
-335.275	-76.418	0.252	0.089
-334.260	-200.000	0.036	-0.382
-333.245	800.000	0.034	0.145
-332.231	-200.000	0.002	-0.049
-331.216	484.857	0.060	0.137
-330.202	176.934	-0.163	0.239
-329.187	800.000	-0.094	0.370
-328.172	15.836	-0.155	-0.123
-327.158	-147.440	0.269	0.023
-326.143	800.000	-0.012	0.033
-325.129	-66.478	0.238	0.095
-324.114	-49.540	-0.189	-0.091
-323.099	-179.258	-0.322	-0.007
-322.085	-51.323	0.226	-0.106
-321.070	469.162	-0.081	-0.182
-320.056	400.334	0.158	0.334
-319.041	-200.000	0.002	-0.155
-318.026	-159.605	-0.434	-0.024
-317.012	-200.000	0.010	-0.177
-315.997	-105.964	-0.162	-0.037
-314.983	-200.000	0.020	-0.176
-313.968	448.422	-0.097	0.215
-312.953	234.149	0.055	-0.091
-311.939	533.357	-0.089	-0.212
-310.924	28.744	0.262	0.223
-309.910	-124.563	-0.374	0.058
-308.895	-35.910	0.150	0.082
-307.880	134.429	-0.148	0.193
-306.866	-200.000	-0.033	-0.281
-305.851	2.249	-0.230	-0.168
-304.837	-200.000	-0.009	-0.179
-303.822	-200.000	-0.063	-0.550
-302.807	146.049	-0.162	-0.218
-301.793	-90.565	0.374	0.109
-300.778	-52.969	-0.214	-0.099
-299.764	-105.045	0.184	-0.042
-298.749	-200.000	0.019	0.117
-297.735	373.309	-0.121	0.247
-296.720	154.239	-0.267	0.368
-295.705	687.132	-0.086	0.227
-294.691	137.977	-0.179	0.235
-293.676	213.606	0.020	-0.031
-292.662	-200.000	-0.007	-0.036
-291.647	-144.376	-0.180	-0.017
-290.632	800.000	0.070	0.209
-289.618	-173.527	-0.068	0.002
-288.603	-200.000	0.006	-0.154
-287.589	722.734	0.014	-0.039
-286.574	393.908	0.166	0.347
-285.559	201.302	0.173	-0.268
-284.545	1.018	0.091	-0.065
-283.530	4.828	0.062	0.046
-282.516	-88.987	0.266	-0.079
-281.501	-169.234	-0.081	-0.003
-280.486	31.258	-0.145	0.126
-279.472	99.235	0.062	0.072
-278.457	451.424	-0.164	0.365
-277.443	1.222	0.062	0.045
-276.428	-66.078	0.115	0.046
-275.413	-25.317	-0.220	0.131
-274.399	20.515	-0.290	0.236
-273.384	-95.426	0.126	-0.034
-272.370	800.000	-0.016	-0.057
-271.355	152.118	0.142	-0.195
-270.340	-200.000	0.027	-0.333
-269.326	197.352	0.091	0.140
-268.311	68.857	0.078	0.080
-267.297	-12.493	-0.177	0.116
-266.282	-32.283	0.193	0.108
-265.267	-63.299	-0.174	0.072
-264.253	204.423	0.069	0.107
-263.238	191.735	0.130	-0.196
-262.224	-79.747	-0.236	0.080
-261.209	142.745	0.043	0.057
-260.195	-200.000	-0.088	0.440
-259.180	-200.000	0.013	0.270
-258.165	800.000	0.074	-0.287
-257.151	-7.471	-0.310	0.211
-256.136	316.498	-0.055	-0.105
-255.122	52.531	-0.030	-0.028
-254.107	122.895	0.005	-0.006
-253.092	195.807	-0.116	0.178
-252.078	-14.035	0.050	-0.032
-251.063	-200.000	-0.006	0.182
-250.049	-200.000	0.025	-0.132
-249.034	95.119	-0.020	0.023
-248.019	127.373	0.130	-0.166
-247.005	642.950	0.116	0.296
-245.990	-3.938	0.088	-0.061
-244.976	-58.010	0.321	0.141
-243.961	-109.313	0.129	0.028
-242.946	677.740	0.044	-0.116
-241.932	220.015	-0.083	-0.133
-240.917	800.000	-0.102	-0.406
-239.903	313.719	0.022	0.041
-238.888	8.652	0.122	-0.092
-237.873	433.586	-0.049	-0.108
-236.859	263.140	-0.045	0.079
-235.844	-134.877	0.096	-0.012
-234.830	82.106	0.072	-0.079
-233.815	104.600	-0.253	-0.299
-232.800	-23.550	0.263	-0.158
-231.786	-111.515	-0.063	0.013
-230.771	800.000	0.079	-0.237
-229.757	-200.000	0.000	0.086
-228.742	800.000	-0.059	0.244
-227.727	53.637	-0.296	0.285
-226.713	-200.000	-0.013	0.101
-225.698	-43.733	0.181	-0.092
-224.684	288.852	-0.137	0.250
-223.669	-7.186	0.031	0.021
-222.655	8.218	-0.199	-0.150
-221.640	-200.000	0.031	0.309
-220.625	302.281	0.075	0.139
-219.611	216.492	0.082	0.130
-218.596	-59.483	0.085	-0.037
-217.582	25.966	-0.209	0.175
-216.567	491.394	0.142	-0.326
-215.552	-56.463	-0.144	-0.064
-214.538	-95.902	-0.108	-0.029
-213.523	117.696	-0.153	0.189
-212.509	-60.439	0.213	-0.091
-211.494	800.000	-0.158	-0.569
-210.479	-161.027	0.124	0.007
-209.465	-48.896	0.182	-0.088
-208.450	-123.106	0.418	0.067
-207.436	800.000	0.071	-0.233
-206.421	126.339	-0.435	-0.552
-205.406	146.305	-0.168	-0.226
-204.392	167.979	-0.065	-0.092
-203.377	-200.000	-0.017	-0.280
-202.363	45.072	0.040	0.037
-201.348	214.623	-0.116	0.185
-200.333	-58.749	0.155	-0.067
-199.319	-117.113	0.069	0.013
-198.304	-200.000	0.016	0.219
-197.290	-200.000	-0.019	0.127
-196.275	-167.827	0.178	-0.007
-195.260	-49.784	0.272	-0.130
-194.246	-152.622	0.348	0.025
-193.231	607.445	-0.125	0.313
-192.217	190.492	-0.198	0.298
-191.202	-200.000	-0.025	0.391
-190.187	787.433	0.115	0.317
-189.173	369.934	0.075	0.153
-188.158	-58.394	0.131	-0.057
-187.144	-107.101	0.132	-0.029
-186.129	300.546	0.189	-0.349
-185.114	800.000	0.018	0.071
-184.100	-69.968	0.203	0.077
-183.085	746.612	-0.019	-0.051
-182.071	70.374	-0.076	-0.079
-181.056	81.189	0.096	-0.104
-180.042	372.536	0.016	0.032
-179.027	-40.053	-0.075	0.039
-178.012	-200.000	-0.007	0.150
-176.998	-108.032	-0.158	-0.034
-175.983	-149.317	-0.149	-0.012
-174.969	-33.542	0.104	-0.057
-173.954	-21.077	-0.225	-0.138
-172.939	70.502	-0.091	-0.094
-171.925	-182.447	0.428	-0.008
-170.910	-87.443	0.145	-0.044
-169.896	-132.985	0.185	0.024
-168.881	-153.608	-0.227	0.016
-167.866	-200.000	0.036	0.264
-166.852	275.573	0.269	-0.478
-165.837	240.895	0.058	-0.096
-164.823	100.306	0.114	-0.132
-163.808	-79.727	0.160	-0.054
-162.793	75.636	-0.163	-0.173
-161.779	-200.000	-0.058	-0.360
-160.764	-80.523	0.173	-0.058
-159.750	112.949	0.059	0.071
-158.735	-26.758	0.129	0.076
-157.720	-16.644	0.366	0.232
-156.706	105.039	0.212	0.251
-155.691	-83.847	0.233	-0.074
-154.677	97.544	0.110	-0.126
-153.662	-90.373	0.154	-0.045
-152.647	217.559	0.137	0.219
-151.633	-200.000	-0.011	0.070
-150.618	-200.000	-0.015	-0.214
-149.604	-0.429	-0.088	-0.063
-148.589	800.000	-0.026	0.096
-147.574	270.740	-0.029	0.051
-146.560	-28.834	-0.187	-0.107
-145.545	727.628	0.029	-0.077
-144.531	-114.894	0.057	0.011
-143.516	54.751	-0.139	-0.134
-142.502	-200.000	-0.019	0.107
-141.487	146.503	0.022	0.029
-140.472	-126.068	0.037	0.006
-139.458	253.234	0.100	-0.170
-138.443	73.358	-0.108	0.113
-137.429	-163.340	-0.386	-0.018
-136.414	-146.676	0.452	-0.039
-135.399	-118.735	-0.106	0.019
-134.385	800.000	0.029	0.105
-133.370	121.688	0.073	0.090
-132.356	-200.000	0.117	-0.521
-131.341	-200.000	-0.047	-0.276
-130.326	-200.000	0.074	-0.417
-129.312	-157.196	-0.649	-0.039
-128.297	-82.617	0.070	-0.023
-127.283	-200.000	-0.010	0.117
-126.268	-17.166	0.055	-0.035
-125.253	60.379	-0.166	0.164
-124.239	326.068	0.087	0.167
-123.224	-200.000	0.052	0.243
-122.210	-60.786	0.175	-0.074
-121.195	137.547	0.059	-0.077
