DTS Sentinel unit serial number:	SN413079Multiplexer serial number:	ORYXHardware model number:	OX4-SRSoftware version number:	ORYX F/W v4.00 Oryx Data Collector v3.7.2.0data status	okinstallation	princeton_trtdifferential loss correction	single-endedforward channel	channel 1reverse channel	N/Adate	2019/09/13time	00:10:35forward acquisition time	60.00reverse acquisition time	0.00gamma	496.2192k internal	0.2328k external	0.2328temperature offset calibration	1.0146default loss term (dB/km)	0.3790temperature slope calibration	1.0000multiplexer offset coefficient	1.0000multiplexer slope coefficient	1.0000fibre end	0.00T internal ref (°C)	28.56T ext. ref 1 (°C)	3.78T ext. ref 2 (°C)	23.20length (m)	temperature (°C)	Stokes	anti-Stokes-747.200	-76.526	-0.056	0.020
-746.185	59.326	-0.221	-0.220
-745.171	161.396	-0.163	0.230
-744.156	-133.978	0.109	-0.014
-743.142	123.542	0.175	-0.221
-742.127	-200.000	0.014	0.395
-741.112	381.799	-0.079	-0.164
-740.098	800.000	-0.064	0.234
-739.083	-160.043	-0.099	-0.005
-738.069	800.000	0.027	-0.088
-737.054	755.284	-0.093	0.253
-736.039	93.170	0.039	0.044
-735.025	131.183	0.175	-0.226
-734.010	-200.000	0.014	0.146
-732.996	800.000	-0.036	-0.115
-731.981	-31.563	-0.272	0.154
-730.966	800.000	-0.106	-0.365
-729.952	-55.358	-0.257	0.116
-728.937	-146.874	-0.347	-0.030
-727.923	-200.000	-0.018	-0.330
-726.908	403.292	-0.027	0.057
-725.894	86.755	-0.087	0.097
-724.879	148.846	-0.085	-0.116
-723.864	209.755	0.040	-0.064
-722.850	-200.000	-0.069	-0.384
-721.835	-106.281	0.142	-0.032
-720.821	368.738	0.193	0.394
-719.806	-36.790	0.130	0.070
-718.791	-2.990	0.140	-0.098
-717.777	-200.000	-0.000	0.110
-716.762	158.801	-0.134	-0.187
-715.748	-182.979	0.193	-0.003
-714.733	-47.878	-0.285	-0.139
-713.718	199.433	-0.088	0.136
-712.704	394.710	-0.149	0.312
-711.689	82.815	-0.099	0.108
-710.675	-130.916	-0.199	-0.027
-709.660	800.000	-0.068	0.204
-708.645	439.799	-0.065	0.143
-707.631	-5.458	0.047	0.032
-706.616	123.939	0.071	0.089
-705.602	-118.416	-0.052	-0.009
-704.587	-200.000	-0.013	-0.245
-703.572	-7.991	-0.149	-0.101
-702.558	33.773	-0.149	0.130
-701.543	-200.000	-0.015	0.072
-700.529	215.490	0.124	0.199
-699.514	-162.511	-0.328	0.016
-698.499	-200.000	-0.046	-0.291
-697.485	-200.000	-0.007	-0.103
-696.470	-200.000	0.151	0.000
-695.456	-125.005	-0.178	-0.028
-694.441	-132.850	0.077	0.010
-693.426	-102.048	-0.352	-0.085
-692.412	67.634	0.137	-0.141
-691.397	65.789	-0.093	-0.095
-690.383	30.526	-0.135	-0.116
-689.368	-111.089	0.059	-0.012
-688.354	800.000	-0.022	-0.061
-687.339	-2.853	0.078	-0.055
-686.324	23.802	-0.149	0.123
-685.310	-53.175	-0.480	-0.222
-684.295	12.125	0.071	0.055
-683.281	65.229	0.135	-0.137
-682.266	-42.502	-0.098	-0.050
-681.251	800.000	0.061	-0.178
-680.237	-200.000	0.006	-0.252
-679.222	122.444	0.117	-0.147
-678.208	-64.618	-0.314	0.128
-677.193	-140.418	-0.175	0.018
-676.178	56.822	-0.217	0.212
-675.164	-200.000	-0.012	-0.132
-674.149	100.592	-0.009	-0.011
-673.135	-200.000	0.000	0.071
-672.120	54.748	0.203	-0.197
-671.105	413.347	0.120	-0.256
-670.091	53.916	-0.116	0.112
-669.076	-23.441	0.013	0.008
-668.062	377.730	-0.050	-0.103
-667.047	217.394	-0.199	0.319
-666.032	166.142	0.058	0.082
-665.018	-200.000	0.022	-0.130
-664.003	-200.000	-0.010	0.278
-662.989	231.440	-0.175	0.289
-661.974	194.944	-0.247	-0.377
-660.959	800.000	-0.018	0.055
-659.945	87.805	0.141	-0.157
-658.930	766.997	-0.075	0.204
-657.916	-156.428	-0.179	-0.011
-656.901	208.075	-0.025	-0.040
-655.886	49.700	0.088	-0.083
-654.872	118.718	0.219	-0.272
-653.857	18.705	-0.131	-0.105
-652.843	800.000	0.100	0.299
-651.828	-57.239	0.113	-0.050
-650.814	-0.150	-0.098	-0.070
-649.799	-200.000	-0.005	0.040
-648.784	-200.000	0.005	-0.267
-647.770	-107.194	-0.124	-0.027
-646.755	-97.398	0.040	0.010
-645.741	-200.000	0.011	-0.114
-644.726	-200.000	0.041	0.276
-643.711	-4.758	0.073	-0.051
-642.697	11.887	0.142	-0.109
-641.682	-60.891	-0.103	-0.044
-640.668	420.154	0.008	0.018
-639.653	-200.000	0.036	-0.223
-638.638	-43.063	0.184	0.094
-637.624	24.249	0.120	0.100
-636.609	-45.420	0.155	0.077
-635.595	-185.036	-0.111	-0.002
-634.580	303.537	0.066	0.123
-633.565	-173.196	-0.108	0.003
-632.551	84.783	-0.152	0.167
-631.536	-200.000	-0.005	0.109
-630.522	800.000	-0.103	0.315
-629.507	-80.409	-0.340	0.114
-628.492	-200.000	0.017	-0.163
-627.478	-200.000	-0.020	-0.159
-626.463	208.923	0.028	0.044
-625.449	-200.000	0.067	-0.294
-624.434	-132.896	0.069	-0.009
-623.419	-200.000	-0.017	0.143
-622.405	181.612	0.077	0.114
-621.390	-101.644	-0.080	0.019
-620.376	800.000	-0.039	-0.152
-619.361	-200.000	0.033	-0.244
-618.346	170.854	-0.109	0.157
-617.332	295.369	0.132	0.242
-616.317	-147.559	-0.165	0.014
-615.303	77.120	-0.218	0.232
-614.288	181.660	-0.159	0.234
-613.273	-184.136	0.434	-0.007
-612.259	171.480	0.147	-0.211
-611.244	410.733	0.075	-0.159
-610.230	-200.000	0.051	0.262
-609.215	800.000	0.020	0.060
-608.201	-92.157	-0.261	-0.074
-607.186	-38.989	-0.119	0.063
-606.171	-153.052	0.153	0.011
-605.157	85.999	0.042	-0.046
-604.142	-200.000	-0.006	0.107
-603.128	-58.933	0.273	-0.118
-602.113	-200.000	-0.035	-0.299
-601.098	-200.000	-0.020	0.122
-600.084	-183.532	-0.321	-0.006
-599.069	97.156	0.160	0.183
-598.055	363.410	-0.085	-0.171
-597.040	-21.911	-0.275	-0.168
-596.025	31.942	-0.130	0.112
-595.011	800.000	0.021	0.062
-593.996	-200.000	-0.070	0.321
-592.982	-1.683	-0.073	-0.052
-591.967	-134.385	-0.364	-0.045
-590.952	-65.766	-0.268	-0.108
-589.938	-200.000	-0.003	0.115
-588.923	62.344	-0.054	0.054
-587.909	-197.701	0.405	0.002
-586.894	45.416	-0.164	-0.151
-585.879	-93.838	-0.256	-0.071
-584.865	-200.000	0.028	0.180
-583.850	-200.000	-0.042	0.278
-582.836	-117.226	0.116	0.021
-581.821	-23.721	-0.158	0.095
-580.806	-73.384	-0.399	0.146
-579.792	96.252	-0.200	0.229
-578.777	-157.406	0.052	0.003
-577.763	372.580	0.162	-0.330
-576.748	53.879	-0.193	-0.185
-575.733	87.635	0.126	0.140
-574.719	800.000	0.039	-0.118
-573.704	-12.544	0.145	0.095
-572.690	695.524	-0.125	-0.329
-571.675	800.000	0.115	-0.331
-570.661	-77.298	-0.170	0.059
-569.646	218.763	0.105	0.168
-568.631	288.145	0.112	-0.203
-567.617	-38.778	-0.367	0.193
-566.602	-109.588	-0.203	-0.043
-565.588	415.416	0.081	0.173
-564.573	-96.121	0.029	-0.008
-563.558	770.138	0.096	-0.262
-562.544	-81.017	-0.290	-0.096
-561.529	800.000	-0.115	-0.386
-560.515	-186.309	-0.157	0.002
-559.500	114.021	0.176	0.214
-558.485	800.000	-0.021	0.080
-557.471	-59.675	0.275	-0.118
-556.456	-200.000	0.013	0.307
-555.442	-200.000	0.091	-0.411
-554.427	-47.967	0.148	-0.071
-553.412	63.258	0.124	0.125
-552.398	-106.959	-0.242	-0.054
-551.383	-85.984	-0.167	0.052
-550.369	297.709	-0.040	0.074
-549.354	800.000	-0.098	-0.389
-548.339	-109.014	0.103	0.022
-547.325	-161.610	0.257	0.013
-546.310	516.446	0.030	0.069
-545.296	299.727	-0.062	0.115
-544.281	-73.247	0.311	0.114
-543.266	-25.931	-0.197	0.116
-542.252	-26.120	-0.221	-0.130
-541.237	-92.917	0.208	-0.058
-540.223	-200.000	-0.230	-0.001
-539.208	393.839	0.064	-0.134
-538.193	-92.962	-0.358	-0.100
-537.179	-200.000	-0.022	-0.370
-536.164	-71.675	-0.140	0.052
-535.150	110.330	-0.070	-0.084
-534.135	-36.757	-0.055	-0.030
-533.121	156.095	0.095	0.130
-532.106	-158.641	-0.209	-0.012
-531.091	-91.728	-0.172	-0.049
-530.077	-40.304	0.082	-0.043
-529.062	-200.000	-0.066	-0.356
-528.048	800.000	-0.014	-0.049
-527.033	-27.271	-0.100	-0.058
-526.018	-154.216	-0.226	-0.015
-525.004	399.679	0.118	0.247
-523.989	49.212	-0.090	0.085
-522.975	18.166	-0.189	-0.150
-521.960	353.399	-0.159	-0.315
-520.945	-80.630	0.199	-0.066
-519.931	42.673	-0.030	0.027
-518.916	-200.000	0.029	-0.143
-517.902	2.768	0.175	-0.126
-516.887	800.000	0.065	0.217
-515.872	311.675	-0.213	-0.398
-514.858	-200.000	0.005	-0.029
-513.843	-17.830	0.045	0.028
-512.829	-69.084	0.181	-0.070
-511.814	-32.319	0.212	0.118
-510.799	-15.726	-0.121	-0.077
-509.785	96.178	0.121	0.139
-508.770	-200.000	0.013	-0.056
-507.756	35.663	0.188	-0.165
-506.741	645.527	0.054	0.138
-505.726	90.912	-0.103	-0.115
-504.712	-200.000	-0.010	0.050
-503.697	462.301	-0.016	-0.036
-502.683	-81.524	-0.121	0.040
-501.668	24.601	0.245	0.202
-500.653	64.632	-0.099	0.099
-499.639	575.949	-0.114	0.278
-498.624	263.901	0.080	-0.138
-497.610	-107.906	0.064	0.014
-496.595	248.814	0.075	-0.127
-495.581	-200.000	0.012	-0.097
-494.566	552.881	-0.113	-0.270
-493.551	-31.472	-0.103	0.058
-492.537	480.690	-0.080	-0.181
-491.522	146.398	0.171	-0.230
-490.508	66.067	-0.305	0.309
-489.493	-9.524	-0.058	-0.039
-488.478	-200.000	0.039	-0.262
-487.464	26.708	0.201	0.168
-486.449	-52.800	-0.395	0.182
-485.435	210.249	-0.060	-0.095
-484.420	159.899	-0.059	-0.083
-483.405	15.249	-0.125	-0.098
-482.391	171.846	-0.113	-0.162
-481.376	708.076	-0.042	0.111
-480.362	5.056	-0.161	-0.119
-479.347	356.150	-0.109	0.217
-478.332	-140.025	-0.193	-0.020
-477.318	58.860	0.112	-0.109
-476.303	-137.927	-0.176	0.020
-475.289	-200.000	-0.004	-0.048
-474.274	111.829	-0.129	-0.155
-473.259	-131.904	-0.232	0.030
-472.245	85.429	-0.246	-0.269
-471.230	-140.990	-0.278	-0.028
-470.216	-173.162	-0.225	-0.007
-469.201	-68.686	0.085	0.033
-468.186	-146.104	0.199	0.017
-467.172	-199.831	0.244	0.001
-466.157	71.956	0.180	-0.187
-465.143	-13.668	0.245	0.158
-464.128	248.934	-0.083	0.141
-463.113	-109.983	0.369	-0.077
-462.099	49.913	-0.165	0.155
-461.084	-200.000	0.065	0.294
-460.070	-11.819	0.239	0.156
-459.055	800.000	0.055	-0.206
-458.040	54.194	-0.151	-0.145
-457.026	-78.324	-0.263	0.090
-456.011	149.539	-0.145	0.196
-454.997	17.272	-0.098	0.077
-453.982	659.806	-0.063	0.160
-452.968	800.000	-0.079	-0.290
-451.953	211.185	-0.117	-0.184
-450.938	-118.438	0.237	0.042
-449.924	-161.229	-0.228	0.012
-448.909	-200.000	-0.034	0.227
-447.895	800.000	0.034	0.143
-446.880	800.000	-0.114	0.448
-445.865	-71.471	0.264	0.098
-444.851	56.846	0.178	-0.173
-443.836	85.733	-0.068	0.074
-442.822	-200.000	-0.032	-0.198
-441.807	-125.674	-0.338	0.051
-440.792	202.384	0.163	0.251
-439.778	-200.000	0.033	0.218
-438.763	800.000	-0.041	0.152
-437.749	163.637	-0.070	0.098
-436.734	323.977	-0.048	0.092
-435.719	-30.467	0.159	0.089
-434.705	58.116	-0.318	0.310
-433.690	-106.274	0.201	-0.045
-432.676	-189.535	0.061	-0.001
-431.661	-150.168	-0.215	0.017
-430.646	-200.000	0.000	-0.170
-429.632	40.396	-0.094	-0.084
-428.617	-200.000	-0.006	-0.035
-427.603	-113.954	0.418	-0.081
-426.588	-123.372	0.156	0.025
-425.573	-28.504	-0.195	0.112
-424.559	-200.000	0.011	0.160
-423.544	-200.000	-0.041	-0.183
-422.530	-200.000	-0.043	-0.254
-421.515	-200.000	-0.041	0.335
-420.500	302.413	0.087	-0.161
-419.486	-105.194	-0.115	-0.026
-418.471	357.803	0.051	0.102
-417.457	222.313	-0.044	-0.070
-416.442	591.585	0.045	-0.110
-415.428	800.000	0.083	0.284
-414.413	-59.472	0.394	0.169
-413.398	-200.000	-0.049	0.302
-412.384	-200.000	0.026	0.162
-411.369	64.761	0.118	-0.119
-410.355	-106.087	-0.177	0.040
-409.340	455.734	0.130	-0.287
-408.325	-200.000	0.065	-0.443
-407.311	216.870	0.120	-0.190
-406.296	91.951	-0.042	-0.047
-405.282	-150.142	0.340	-0.026
-404.267	62.400	-0.158	-0.157
-403.252	249.235	-0.087	-0.146
-402.238	361.407	-0.071	0.141
-401.223	-200.000	-0.002	0.091
-400.209	-200.000	0.030	-0.523
-399.194	-85.620	-0.082	-0.025
-398.179	-107.422	0.167	-0.036
-397.165	-200.000	0.034	-0.169
-396.150	52.012	-0.010	-0.009
-395.136	215.182	-0.120	0.189
-394.121	-42.937	0.046	-0.023
-393.106	-57.419	-0.217	-0.095
-392.092	-190.556	-0.163	-0.002
-391.077	-200.000	-0.026	0.407
-390.063	-75.358	0.207	-0.073
-389.048	800.000	0.094	0.392
-388.033	800.000	-0.088	0.353
-387.019	-44.426	-0.103	-0.051
-386.004	-200.000	0.050	0.265
-384.990	-107.690	-0.275	0.060
-383.975	367.011	0.055	0.110
-382.960	340.984	0.027	-0.052
-381.946	332.487	0.092	-0.177
-380.931	41.552	-0.124	-0.112
-379.917	265.709	0.211	0.365
-378.902	800.000	0.019	-0.072
-377.888	342.063	0.055	0.106
-376.873	85.889	0.255	0.279
-375.858	-200.000	0.051	-0.231
-374.844	-62.170	-0.178	-0.074
-373.829	363.825	0.091	0.182
-372.815	-200.000	-0.020	0.242
-371.800	129.105	0.116	0.147
-370.785	800.000	0.033	0.110
-369.771	800.000	-0.023	-0.081
-368.756	144.494	-0.139	0.184
-367.742	-12.569	0.193	-0.125
-366.727	800.000	-0.094	0.278
-365.712	328.822	-0.160	0.305
-364.698	-132.237	0.206	0.027
-363.683	-11.075	0.101	-0.066
-362.669	-77.158	0.398	-0.138
-361.654	800.000	0.043	-0.166
-360.639	143.051	-0.342	0.452
-359.625	-137.462	-0.210	-0.024
-358.610	-49.513	0.028	0.013
-357.596	-200.000	0.009	-0.459
-356.581	-200.000	-0.018	-0.155
-355.566	800.000	0.027	0.099
-354.552	800.000	0.024	-0.078
-353.537	80.101	-0.109	-0.117
-352.523	569.834	0.088	-0.213
-351.508	-75.683	-0.324	-0.114
-350.493	107.126	0.056	0.066
-349.479	676.224	0.051	0.131
-348.464	162.477	0.159	-0.221
-347.450	11.125	0.141	0.107
-346.435	126.557	-0.127	0.160
-345.420	422.895	-0.077	0.164
-344.406	27.550	0.231	-0.193
-343.391	107.171	-0.019	-0.022
-342.377	800.000	-0.060	0.246
-341.362	-93.955	-0.062	-0.017
-340.348	146.092	0.198	-0.263
-339.333	-157.511	-0.185	0.011
-338.318	678.479	0.028	-0.071
-337.304	800.000	-0.105	-0.314
-336.289	218.093	-0.199	0.316
-335.275	233.611	0.003	-0.005
-334.260	-46.894	0.276	-0.134
-333.245	-177.535	0.204	0.005
-332.231	-144.835	-0.182	-0.017
-331.216	800.000	-0.104	0.378
-330.202	-200.000	-0.017	-0.108
-329.187	564.798	0.141	0.338
-328.172	-200.000	-0.016	0.420
-327.158	6.898	0.262	0.194
-326.143	-200.000	0.073	-0.362
-325.129	-162.766	-0.326	0.016
-324.114	-200.000	-0.005	-0.178
-323.099	88.506	0.076	0.083
-322.085	-52.714	0.126	-0.058
-321.070	102.812	0.168	-0.195
-320.056	194.629	-0.214	0.321
-319.041	150.521	0.075	0.101
-318.026	-23.824	0.215	-0.127
-317.012	157.931	0.088	-0.120
-315.997	-56.732	0.183	-0.080
-314.983	36.203	0.143	-0.124
-313.968	530.299	-0.054	0.125
-312.953	-44.397	0.115	-0.057
-311.939	-7.747	-0.121	-0.081
-310.924	7.304	0.069	0.051
-309.910	-48.570	-0.178	-0.085
-308.895	-50.253	-0.263	-0.123
-307.880	10.357	0.054	0.041
-306.866	93.832	0.102	0.115
-305.851	-176.746	-0.261	-0.007
-304.837	-31.497	0.200	-0.111
-303.822	209.805	-0.080	0.124
-302.807	-12.815	-0.252	0.162
-301.793	-200.000	0.030	0.157
-300.778	800.000	0.010	0.038
-299.764	5.924	-0.190	-0.139
-298.749	-102.063	-0.131	0.031
-297.735	-28.611	0.121	0.069
-296.720	-73.631	-0.233	-0.084
-295.705	0.525	-0.185	-0.131
-294.691	330.047	0.056	-0.107
-293.676	-133.259	0.299	-0.037
-292.662	335.399	0.097	-0.185
-291.647	-200.000	0.040	-0.213
-290.632	800.000	0.060	0.211
-289.618	-87.487	0.332	-0.099
-288.603	-118.787	0.268	-0.047
-287.589	-200.000	0.054	-0.369
-286.574	36.204	0.146	-0.127
-285.559	53.521	0.214	0.203
-284.545	-200.000	0.036	-0.404
-283.530	-43.901	-0.190	-0.095
-282.516	-153.051	0.049	-0.003
-281.501	-200.000	0.023	-0.229
-280.486	-137.880	-0.299	-0.033
-279.472	-4.606	0.186	-0.127
-278.457	800.000	0.060	0.194
-277.443	-200.000	-0.042	-0.443
-276.428	33.114	-0.139	-0.119
-275.413	32.623	0.132	0.113
-274.399	-49.848	0.101	0.047
-273.384	-7.864	-0.156	0.104
-272.370	532.360	-0.040	-0.093
-271.355	-200.000	-0.038	0.213
-270.340	20.113	0.214	0.171
-269.326	-55.207	0.290	-0.129
-268.311	-200.000	0.009	-0.102
-267.297	-121.493	0.437	0.072
-266.282	445.611	0.054	-0.117
-265.267	-59.251	-0.053	-0.022
-264.253	-58.644	-0.061	-0.026
-263.238	-78.120	0.312	0.106
-262.224	-200.000	0.045	0.315
-261.209	18.883	0.068	0.054
-260.195	-200.000	0.006	0.359
-259.180	800.000	-0.001	0.002
-258.165	-200.000	0.005	-0.129
-257.151	-38.168	0.272	0.143
-256.136	22.793	-0.040	-0.033
-255.122	-68.066	0.246	0.095
-254.107	-101.651	-0.210	0.050
-253.092	-40.026	0.042	0.022
-252.078	67.605	-0.287	-0.290
-251.063	-200.000	0.005	0.103
-250.049	-154.199	-0.128	-0.009
-249.034	-62.144	0.262	0.108
-248.019	3.810	-0.223	0.161
-247.005	425.186	-0.112	-0.239
-245.990	-12.316	0.089	-0.057
-244.976	-5.510	-0.141	0.095
-243.961	338.568	-0.208	-0.400
-242.946	195.975	0.184	-0.276
-241.932	-7.619	-0.042	0.028
-240.917	-191.329	0.138	-0.001
-239.903	549.797	-0.175	-0.413
-238.888	-142.098	-0.176	-0.017
-237.873	83.229	-0.274	-0.295
-236.859	-29.696	-0.213	0.120
-235.844	800.000	0.105	-0.301
-234.830	-149.325	0.527	-0.041
-233.815	-45.083	-0.075	-0.037
-232.800	-168.846	-0.177	-0.007
-231.786	-77.723	0.404	0.138
-230.771	-200.000	-0.060	-0.618
-229.757	-40.455	-0.237	0.122
-228.742	-61.058	-0.229	0.095
-227.727	618.154	-0.036	0.090
-226.713	-191.232	0.244	0.002
-225.698	18.697	0.148	0.117
-224.684	-37.403	-0.270	0.143
-223.669	-63.493	0.099	0.040
-222.655	4.888	-0.424	0.308
-221.640	154.108	-0.233	0.315
-220.625	800.000	-0.034	0.105
-219.611	-55.180	0.127	-0.057
-218.596	-196.392	-0.103	0.001
-217.582	-183.646	0.222	0.004
-216.567	-70.811	0.134	0.050
-215.552	765.263	-0.137	0.366
-214.538	57.322	-0.106	-0.102
-213.523	-170.976	-0.226	0.008
-212.509	292.580	0.155	0.278
-211.494	371.246	-0.049	0.099
-210.479	147.338	0.013	-0.018
-209.465	-29.875	-0.147	-0.083
-208.450	681.793	-0.069	-0.176
-207.436	800.000	0.097	0.284
-206.421	-42.658	-0.081	-0.041
-205.406	800.000	0.070	-0.284
-204.392	-37.339	-0.135	-0.071
-203.377	580.372	-0.072	-0.175
-202.363	602.737	0.148	-0.364
-201.348	800.000	-0.061	0.167
-200.333	-200.000	0.001	-0.154
-199.319	12.950	0.151	0.115
-198.304	-30.154	0.270	0.151
-197.290	-200.000	0.047	0.207
-196.275	-117.137	0.135	-0.024
-195.260	442.336	0.065	-0.139
-194.246	-2.586	0.242	-0.167
-193.231	-200.000	-0.025	-0.183
-192.217	-200.000	0.028	-0.247
-191.202	39.998	0.228	0.202
-190.187	-60.093	-0.408	0.171
-189.173	-26.596	0.150	-0.086
-188.158	-84.886	0.183	0.057
-187.144	-200.000	-0.024	-0.109
-186.129	-89.580	0.326	-0.094
-185.114	-200.000	-0.002	-0.303
-184.100	315.096	0.046	0.085
-183.085	800.000	-0.047	0.156
-182.071	57.193	0.112	0.108
-181.056	-76.628	0.072	0.025
-180.042	-200.000	-0.012	0.106
-179.027	-200.000	0.025	0.178
-178.012	-106.510	0.064	0.014
-176.998	-171.881	0.209	0.007
-175.983	-200.000	-0.060	-0.259
-174.969	-147.003	0.267	-0.023
-173.954	259.836	-0.006	-0.010
-172.939	-91.931	-0.078	0.022
-171.925	-200.000	-0.034	-0.360
-170.910	46.521	0.016	0.015
-169.896	128.322	0.094	0.118
-168.881	-95.855	0.221	-0.058
-167.866	33.169	-0.219	0.187
-166.852	-200.000	0.011	0.057
-165.837	162.048	-0.117	0.161
-164.823	-43.360	0.230	-0.114
-163.808	230.049	0.051	-0.083
-162.793	-200.000	0.036	0.190
-161.779	-105.564	-0.240	0.054
-160.764	-64.503	0.175	-0.070
-159.750	-102.269	0.163	-0.039
-158.735	-52.276	0.240	0.109
-157.720	271.291	0.077	0.133
-156.706	61.689	0.213	0.209
-155.691	603.381	-0.108	0.265
-154.677	-200.000	-0.019	0.158
-153.662	35.266	0.150	0.129
-152.647	111.865	0.140	0.167
-151.633	-40.684	0.041	0.021
-150.618	800.000	0.032	-0.126
-149.604	-176.987	0.134	-0.003
-148.589	309.245	0.012	0.022
-147.574	-137.213	-0.258	-0.029
-146.560	800.000	0.104	0.298
-145.545	44.589	0.293	0.265
-144.531	18.911	0.175	0.138
-143.516	63.826	-0.068	-0.067
-142.502	-64.948	0.206	-0.082
-141.487	-200.000	0.077	0.346
-140.472	-79.008	0.190	0.063
-139.458	-200.000	-0.003	0.044
-138.443	-67.139	-0.182	0.071
-137.429	-0.644	-0.253	-0.176
-136.414	-50.184	0.132	0.062
-135.399	-102.393	0.120	0.028
-134.385	-200.000	-0.007	-0.146
-133.370	-141.758	-0.287	0.028
-132.356	-200.000	0.021	-0.403
-131.341	800.000	-0.118	0.332
-130.326	-200.000	0.035	0.218
-129.312	280.554	-0.102	-0.179
-128.297	-129.519	0.139	0.019
-127.283	-92.198	0.133	0.037
-126.268	331.665	-0.070	0.132
-125.253	-11.638	0.145	0.094
-124.239	-200.000	-0.001	-0.215
-123.224	-15.211	0.358	0.225
-122.210	800.000	0.096	0.321
