DTS Sentinel unit serial number:	SN413079Multiplexer serial number:	ORYXHardware model number:	OX4-SRSoftware version number:	ORYX F/W v4.00 Oryx Data Collector v3.7.2.0data status	okinstallation	princeton_trtdifferential loss correction	single-endedforward channel	channel 1reverse channel	N/Adate	2019/09/15time	13:58:36forward acquisition time	60.00reverse acquisition time	0.00gamma	496.2192k internal	0.2293k external	0.2293temperature offset calibration	0.9972default loss term (dB/km)	0.3790temperature slope calibration	1.0000multiplexer offset coefficient	1.0000multiplexer slope coefficient	1.0000fibre end	0.00T internal ref (°C)	38.42T ext. ref 1 (°C)	4.96T ext. ref 2 (°C)	35.13length (m)	temperature (°C)	Stokes	anti-Stokes-747.200	-43.340	-0.369	0.191
-746.185	-71.724	-0.183	0.070
-745.171	-23.596	0.082	-0.050
-744.156	800.000	-0.034	0.133
-743.142	-131.693	0.257	-0.035
-742.127	800.000	0.067	0.201
-741.112	554.659	-0.060	-0.147
-740.098	135.441	-0.174	0.231
-739.083	-41.793	0.264	0.139
-738.069	-114.853	-0.145	-0.028
-737.054	-56.642	-0.159	-0.072
-736.039	-146.735	-0.067	0.006
-735.025	-185.801	0.189	-0.003
-734.010	-200.000	-0.036	-0.245
-732.996	-200.000	0.006	-0.152
-731.981	-140.555	0.279	-0.030
-730.966	798.738	-0.084	-0.237
-729.952	-200.000	-0.009	-0.167
-728.937	-84.610	-0.069	-0.022
-727.923	-200.000	0.019	-0.417
-726.908	-151.456	-0.169	-0.013
-725.894	800.000	0.049	-0.175
-724.879	-200.000	0.004	-0.396
-723.864	96.923	0.058	0.068
-722.850	-200.000	0.025	-0.111
-721.835	-116.791	-0.282	-0.053
-720.821	-200.000	0.041	-0.311
-719.806	800.000	0.059	0.180
-718.791	516.890	-0.179	-0.429
-717.777	-161.958	-0.222	-0.011
-716.762	-107.656	0.374	-0.084
-715.748	-200.000	-0.040	0.195
-714.733	6.977	-0.284	-0.216
-713.718	656.367	-0.054	-0.141
-712.704	60.721	0.214	-0.217
-711.689	163.193	-0.208	0.299
-710.675	-195.049	0.047	-0.000
-709.660	171.535	0.099	-0.145
-708.645	-27.992	-0.133	0.079
-707.631	-156.336	0.129	0.008
-706.616	-36.924	-0.117	0.064
-705.602	-59.410	-0.377	-0.166
-704.587	107.648	0.272	-0.331
-703.572	-3.377	0.048	0.034
-702.558	-19.783	0.165	0.104
-701.543	800.000	0.095	0.284
-700.529	-200.000	-0.001	0.019
-699.514	-200.000	0.007	-0.192
-698.499	468.106	0.142	-0.324
-697.485	129.580	0.082	-0.107
-696.470	-112.412	0.333	0.068
-695.456	331.880	-0.085	-0.168
-694.441	-124.686	-0.152	-0.024
-693.426	-200.000	0.006	0.040
-692.412	-70.684	0.308	0.119
-691.397	800.000	0.038	0.109
-690.383	-200.000	-0.034	0.179
-689.368	-14.418	-0.231	0.152
-688.354	800.000	-0.064	0.230
-687.339	-78.352	0.175	-0.061
-686.324	196.734	-0.144	0.224
-685.310	-114.045	-0.298	0.059
-684.295	800.000	-0.062	0.203
-683.281	-200.000	-0.026	0.158
-682.266	24.666	0.136	0.115
-681.251	299.751	-0.105	-0.197
-680.237	-200.000	0.002	0.104
-679.222	100.731	-0.146	-0.173
-678.208	98.179	0.139	0.163
-677.193	-84.194	0.169	-0.055
-676.178	-11.060	0.157	0.105
-675.164	206.403	-0.168	0.266
-674.149	-200.000	-0.003	-0.501
-673.135	-156.851	-0.349	-0.022
-672.120	-108.152	0.103	0.023
-671.105	-188.310	0.215	0.003
-670.091	381.720	-0.089	0.186
-669.076	110.078	-0.098	-0.120
-668.062	-61.330	-0.171	0.073
-667.047	800.000	-0.158	0.488
-666.032	-200.000	0.046	0.250
-665.018	800.000	0.059	0.187
-664.003	7.934	0.090	-0.069
-662.989	-200.000	0.041	-0.312
-661.974	-2.291	-0.367	-0.263
-660.959	-11.572	0.272	0.182
-659.945	-65.201	0.202	-0.083
-658.930	-120.656	-0.240	-0.041
-657.916	-25.331	0.121	-0.073
-656.901	585.602	-0.125	0.314
-655.886	-61.065	-0.061	0.026
-654.872	-62.071	0.413	0.176
-653.857	-28.617	-0.252	0.148
-652.843	-44.601	-0.472	-0.240
-651.828	-151.833	0.315	-0.024
-650.814	13.527	-0.165	0.130
-649.799	-14.612	0.162	0.106
-648.784	400.444	-0.195	-0.417
-647.770	407.488	-0.075	-0.161
-646.755	800.000	0.029	0.094
-645.741	-200.000	-0.006	0.420
-644.726	60.650	-0.250	0.253
-643.711	-131.639	0.173	-0.023
-642.697	-22.968	-0.240	0.147
-641.682	-61.694	-0.189	-0.081
-640.668	37.567	0.130	0.118
-639.653	22.569	-0.080	0.066
-638.638	66.670	-0.185	0.192
-637.624	-200.000	0.056	0.367
-636.609	-200.000	-0.057	-0.280
-635.595	507.568	0.036	-0.086
-634.580	7.083	0.047	-0.036
-633.565	467.952	-0.034	-0.078
-632.551	73.054	0.045	-0.048
-631.536	-19.202	0.239	0.151
-630.522	800.000	-0.113	-0.340
-629.507	-200.000	0.021	0.249
-628.492	436.632	-0.060	-0.133
-627.478	48.339	-0.255	0.243
-626.463	800.000	0.091	0.372
-625.449	-200.000	-0.023	0.260
-624.434	800.000	-0.020	-0.057
-623.419	-53.326	-0.087	-0.041
-622.405	800.000	-0.073	-0.250
-621.390	-17.619	-0.098	0.063
-620.376	-54.476	-0.200	-0.092
-619.361	-118.388	0.156	0.028
-618.346	8.289	-0.012	0.009
-617.332	471.516	0.007	0.017
-616.317	139.293	-0.127	0.170
-615.303	-45.694	0.222	0.112
-614.288	800.000	-0.051	0.149
-613.273	-0.954	-0.234	-0.168
-612.259	-27.614	0.057	-0.034
-611.244	-200.000	-0.048	0.266
-610.230	-200.000	-0.010	0.057
-609.215	-102.532	-0.236	0.057
-608.201	-143.130	-0.187	0.018
-607.186	-200.000	-0.028	-0.232
-606.171	152.380	0.208	0.289
-605.157	-200.000	-0.014	-0.087
-604.142	163.915	0.120	-0.172
-603.128	-21.722	-0.460	-0.285
-602.113	116.914	0.049	-0.061
-601.098	-130.625	-0.087	-0.012
-600.084	-118.571	0.222	0.040
-599.069	-47.701	0.258	-0.127
-598.055	219.093	-0.063	0.103
-597.040	113.211	-0.187	0.231
-596.025	333.836	0.109	0.215
-595.011	-62.603	0.159	0.067
-593.996	-128.054	-0.147	-0.021
-592.982	-54.745	0.095	0.044
-591.967	572.097	0.037	0.091
-590.952	800.000	-0.100	0.425
-589.938	138.695	-0.047	-0.063
-588.923	-99.257	0.165	0.042
-587.909	-58.717	-0.258	0.114
-586.894	-113.387	0.082	0.016
-585.879	-200.000	0.009	0.144
-584.865	138.325	0.119	-0.159
-583.850	-91.778	0.145	0.042
-582.836	8.096	0.143	0.109
-581.821	-123.924	0.110	0.018
-580.806	-94.426	-0.274	0.076
-579.792	800.000	-0.064	-0.221
-578.777	-200.000	-0.080	-0.459
-577.763	-96.712	0.384	-0.103
-576.748	-21.446	-0.208	0.129
-575.733	-200.000	-0.034	-0.197
-574.719	170.913	-0.215	-0.312
-573.704	220.016	0.081	-0.132
-572.690	-135.281	-0.231	0.028
-571.675	117.135	-0.095	0.118
-570.661	117.505	-0.140	0.175
-569.646	175.668	-0.121	-0.178
-568.631	377.211	0.095	-0.196
-567.617	800.000	-0.023	-0.096
-566.602	-31.749	0.191	-0.109
-565.588	-6.182	0.070	-0.049
-564.573	-70.742	0.186	0.071
-563.558	-70.858	0.444	-0.170
-562.544	800.000	0.022	0.070
-561.529	68.200	-0.252	-0.262
-560.515	-30.634	-0.163	0.094
-559.500	29.345	0.101	-0.087
-558.485	800.000	0.021	0.089
-557.471	-63.299	0.208	-0.087
-556.456	800.000	-0.078	-0.247
-555.442	395.075	-0.079	0.166
-554.427	-114.090	-0.414	-0.081
-553.412	800.000	0.057	-0.183
-552.398	-88.490	0.053	0.016
-551.383	-37.937	-0.113	0.061
-550.369	-133.171	-0.443	-0.057
-549.354	-84.998	-0.300	0.096
-548.339	-88.092	-0.085	0.026
-547.325	-144.530	0.042	-0.004
-546.310	-168.448	0.235	-0.009
-545.296	800.000	-0.009	0.030
-544.281	-90.975	-0.180	0.053
-543.266	367.432	0.031	0.063
-542.252	-33.603	-0.121	-0.068
-541.237	457.855	-0.149	0.337
-540.223	-196.673	-0.122	0.001
-539.208	57.351	-0.026	0.026
-538.193	22.150	0.146	0.121
-537.179	-200.000	-0.032	-0.260
-536.164	164.425	0.102	-0.146
-535.150	-74.210	0.353	0.130
-534.135	75.836	0.093	0.100
-533.121	-200.000	-0.063	-0.386
-532.106	22.426	0.286	-0.237
-531.091	-94.932	-0.118	-0.032
-530.077	-33.033	0.033	-0.018
-529.062	-67.663	-0.226	-0.090
-528.048	-105.239	-0.186	-0.043
-527.033	-103.127	0.195	-0.047
-526.018	-12.844	0.336	0.222
-525.004	-200.000	-0.005	0.072
-523.989	-132.342	0.242	0.032
-522.975	-38.509	0.111	-0.059
-521.960	31.845	-0.060	0.052
-520.945	654.998	0.108	0.282
-519.931	105.532	0.074	0.089
-518.916	800.000	0.111	-0.442
-517.902	200.492	-0.072	-0.112
-516.887	800.000	-0.006	0.024
-515.872	-128.164	-0.398	-0.058
-514.858	-200.000	-0.014	0.098
-513.843	113.712	-0.129	-0.159
-512.829	161.156	0.102	0.144
-511.814	62.656	0.169	-0.172
-510.799	-141.618	0.341	0.035
-509.785	230.525	-0.135	-0.224
-508.770	-200.000	0.017	0.085
-507.756	-182.729	-0.117	-0.002
-506.741	115.661	0.196	-0.243
-505.726	188.068	-0.069	-0.105
-504.712	-16.944	-0.171	-0.109
-503.697	-200.000	0.006	-0.177
-502.683	-56.926	-0.275	0.123
-501.668	0.337	-0.178	0.129
-500.653	132.669	-0.129	0.168
-499.639	371.681	0.019	-0.039
-498.624	-200.000	-0.001	0.054
-497.610	-12.589	-0.335	0.221
-496.595	259.065	0.089	0.156
-495.581	-182.260	0.484	0.009
-494.566	-39.306	0.192	-0.102
-493.551	-200.000	0.030	-0.153
-492.537	-79.945	-0.305	0.104
-491.522	-17.688	0.094	0.060
-490.508	-200.000	0.004	0.074
-489.493	-200.000	0.054	0.258
-488.478	117.079	0.239	-0.297
-487.464	-107.521	0.097	0.022
-486.449	84.834	-0.187	-0.208
-485.435	57.319	0.138	-0.136
-484.420	191.216	-0.114	-0.174
-483.405	-200.000	-0.004	0.038
-482.391	-200.000	0.031	-0.165
-481.376	95.666	0.023	0.027
-480.362	61.175	-0.189	-0.190
-479.347	-69.380	-0.093	0.036
-478.332	-49.570	-0.190	0.092
-477.318	162.250	0.094	-0.133
-476.303	-11.809	-0.074	0.049
-475.289	500.393	0.070	0.164
-474.274	140.777	-0.034	0.046
-473.259	-200.000	-0.019	-0.294
-472.245	14.415	-0.389	0.307
-471.230	-200.000	0.053	-0.270
-470.216	-156.315	-0.183	-0.012
-469.201	-200.000	-0.034	-0.217
-468.186	-79.221	0.097	-0.033
-467.172	69.523	-0.069	0.072
-466.157	77.572	-0.029	-0.031
-465.143	-105.229	0.055	-0.013
-464.128	-151.183	0.355	-0.027
-463.113	-200.000	0.053	0.445
-462.099	124.983	0.046	-0.059
-461.084	225.734	0.154	-0.252
-460.070	-53.132	-0.397	-0.184
-459.055	-200.000	-0.018	-0.138
-458.040	116.050	0.056	-0.069
-457.026	800.000	0.056	-0.220
-456.011	800.000	0.060	0.261
-454.997	800.000	0.071	-0.199
-453.982	150.808	-0.122	-0.167
-452.968	-200.000	-0.062	-0.289
-451.953	800.000	-0.027	-0.082
-450.938	176.068	0.152	0.224
-449.924	142.137	0.246	-0.330
-448.909	239.223	-0.163	-0.274
-447.895	111.209	-0.061	0.074
-446.880	-12.887	-0.272	0.179
-445.865	-100.272	0.058	-0.014
-444.851	-4.947	0.132	0.092
-443.836	-200.000	-0.015	0.224
-442.822	800.000	0.050	-0.142
-441.807	-79.526	0.226	0.077
-440.792	-3.481	0.073	-0.051
-439.778	-200.000	0.054	-0.476
-438.763	-200.000	0.017	0.219
-437.749	35.253	0.241	0.214
-436.734	18.800	-0.070	-0.056
-435.719	1.526	0.254	0.185
-434.705	-32.573	-0.098	-0.055
-433.690	31.118	-0.166	0.144
-432.676	9.078	-0.190	-0.145
-431.661	-200.000	-0.005	-0.319
-430.646	3.946	-0.300	-0.222
-429.632	159.192	0.054	0.076
-428.617	-4.448	0.228	0.159
-427.603	-39.443	0.189	0.100
-426.588	-41.209	0.154	-0.080
-425.573	-200.000	0.021	-0.407
-424.559	-200.000	0.025	0.302
-423.544	73.450	0.046	-0.048
-422.530	-10.218	0.181	-0.122
-421.515	-84.272	0.342	-0.109
-420.500	-171.362	-0.038	0.001
-419.486	-25.681	-0.230	-0.137
-418.471	42.082	-0.110	0.100
-417.457	800.000	0.030	-0.099
-416.442	-141.856	0.148	-0.015
-415.428	56.969	-0.053	0.052
-414.413	-145.176	-0.255	-0.023
-413.398	-200.000	0.008	-0.094
-412.384	594.555	0.167	-0.416
-411.369	-72.278	-0.386	0.144
-410.355	-40.098	-0.304	0.160
-409.340	426.900	0.036	-0.078
-408.325	64.698	-0.182	-0.186
-407.311	-178.670	0.201	-0.005
-406.296	-200.000	-0.001	-0.126
-405.282	-200.000	-0.029	0.233
-404.267	436.469	0.047	-0.104
-403.252	-61.163	0.293	0.125
-402.238	-90.270	0.188	-0.055
-401.223	800.000	-0.043	0.138
-400.209	123.095	-0.113	0.143
-399.194	-67.951	-0.080	0.031
-398.179	-7.134	0.141	0.097
-397.165	-200.000	0.019	0.365
-396.150	-66.424	-0.047	-0.019
-395.136	-26.470	-0.149	0.088
-394.121	256.500	0.121	-0.209
-393.106	-103.615	-0.163	-0.039
-392.092	-200.000	-0.054	0.276
-391.077	-120.113	-0.053	-0.009
-390.063	-42.313	-0.256	-0.132
-389.048	-46.478	0.297	0.147
-388.033	408.786	-0.167	-0.356
-387.019	68.774	-0.180	-0.187
-386.004	-200.000	0.004	-0.059
-384.990	-9.212	0.260	0.176
-383.975	246.270	0.155	0.264
-382.960	340.158	0.137	0.270
-381.946	-44.988	-0.113	0.057
-380.931	-62.878	-0.038	-0.016
-379.917	29.249	0.053	0.046
-378.902	-52.568	-0.178	-0.083
-377.888	800.000	-0.059	0.260
-376.873	800.000	-0.050	0.195
-375.858	-36.923	0.190	0.103
-374.844	-147.909	0.174	0.015
-373.829	-50.807	-0.075	-0.035
-372.815	-150.249	0.317	-0.025
-371.800	-111.041	-0.266	0.055
-370.785	141.976	-0.179	-0.239
-369.771	247.254	0.081	0.137
-368.756	-200.000	-0.034	-0.213
-367.742	-200.000	0.014	-0.152
-366.727	-62.934	0.397	0.166
-365.712	-106.634	-0.190	0.043
-364.698	-96.312	0.289	-0.077
-363.683	-83.392	0.307	0.099
-362.669	40.626	-0.092	-0.084
-361.654	7.659	0.222	0.168
-360.639	-159.096	0.194	-0.011
-359.625	-1.637	-0.145	0.103
-358.610	-162.039	-0.145	0.007
-357.596	18.576	0.200	-0.161
-356.581	-61.250	0.349	0.148
-355.566	382.521	0.124	0.256
-354.552	-75.222	-0.170	-0.061
-353.537	-93.655	0.099	0.028
-352.523	184.887	-0.124	-0.186
-351.508	43.740	0.152	0.140
-350.493	-114.465	-0.505	0.098
-349.479	48.412	-0.176	-0.166
-348.464	800.000	-0.116	0.365
-347.450	139.749	0.144	0.191
-346.435	145.504	0.150	-0.202
-345.420	-200.000	-0.025	0.192
-344.406	69.240	-0.188	0.195
-343.391	-147.276	-0.171	0.015
-342.377	311.419	-0.086	-0.163
-341.362	-22.005	-0.116	-0.071
-340.348	-145.947	-0.322	-0.029
-339.333	-119.492	-0.198	-0.035
-338.318	612.450	0.115	0.290
-337.304	800.000	-0.050	-0.214
-336.289	-118.240	-0.435	-0.078
-335.275	-200.000	0.021	-0.222
-334.260	88.840	0.203	0.227
-333.245	-16.609	-0.084	-0.053
-332.231	108.364	-0.027	-0.033
-331.216	272.046	-0.099	-0.176
-330.202	800.000	-0.072	-0.304
-329.187	-16.701	-0.069	-0.044
-328.172	167.776	-0.157	-0.225
-327.158	33.126	-0.138	-0.120
-326.143	-99.214	0.110	0.028
-325.129	222.515	0.045	0.073
-324.114	223.696	0.005	0.009
-323.099	-92.153	-0.108	-0.031
-322.085	-61.308	-0.127	-0.054
-321.070	-109.699	0.159	-0.034
-320.056	245.670	0.120	-0.204
-319.041	-30.061	-0.056	-0.032
-318.026	-12.345	-0.444	-0.292
-317.012	800.000	0.051	0.186
-315.997	117.774	0.177	-0.219
-314.983	5.832	-0.160	-0.119
-313.968	-20.517	0.128	-0.079
-312.953	-169.086	-0.034	-0.001
-311.939	210.306	-0.093	0.148
-310.924	68.570	-0.177	0.183
-309.910	123.234	0.236	-0.297
-308.895	-69.899	-0.237	-0.091
-307.880	85.130	0.033	-0.036
-306.866	165.246	0.082	0.116
-305.851	201.560	-0.199	0.308
-304.837	-104.636	0.146	-0.034
-303.822	-200.000	-0.066	-0.409
-302.807	412.600	-0.105	-0.225
-301.793	-200.000	-0.048	-0.432
-300.778	-200.000	0.002	-0.183
-299.764	-200.000	-0.009	0.135
-298.749	80.205	0.181	-0.196
-297.735	11.512	-0.064	-0.049
-296.720	-180.116	0.388	0.008
-295.705	-126.319	0.301	-0.045
-294.691	800.000	-0.063	0.218
-293.676	-200.000	-0.040	0.375
-292.662	-85.725	0.045	0.014
-291.647	-25.011	-0.317	0.189
-290.632	-22.076	0.392	0.239
-289.618	404.967	0.031	-0.066
-288.603	-200.000	-0.021	0.293
-287.589	224.254	0.056	0.091
-286.574	146.929	-0.189	0.256
-285.559	-27.802	0.291	0.170
-284.545	48.418	0.252	0.237
-283.530	418.929	-0.081	-0.175
-282.516	314.231	0.101	0.190
-281.501	-200.000	-0.009	0.159
-280.486	-19.785	0.115	0.072
-279.472	-200.000	0.007	0.164
-278.457	248.747	0.133	0.227
-277.443	-200.000	-0.013	0.261
-276.428	358.141	-0.079	0.159
-275.413	342.053	0.158	0.310
-274.399	213.180	0.058	-0.092
-273.384	47.181	0.214	0.200
-272.370	156.410	-0.129	0.178
-271.355	-32.913	0.127	-0.071
-270.340	45.787	0.076	0.070
-269.326	-14.981	0.488	-0.314
-268.311	-200.000	0.019	0.083
-267.297	4.153	0.177	-0.130
-266.282	-18.106	-0.266	0.167
-265.267	-200.000	-0.025	0.224
-264.253	447.966	-0.152	-0.336
-263.238	484.160	-0.149	0.341
-262.224	48.450	0.247	0.232
-261.209	-182.565	0.027	-0.000
-260.195	-133.712	0.251	0.031
-259.180	-125.577	0.006	-0.001
-258.165	453.239	0.038	0.085
-257.151	531.193	0.026	-0.062
-256.136	-15.022	-0.097	0.062
-255.122	385.852	0.042	0.088
-254.107	-1.733	0.175	-0.124
-253.092	-23.365	-0.144	-0.087
-252.078	-200.000	0.029	0.399
-251.063	800.000	0.008	0.029
-250.049	-149.168	0.304	-0.024
-249.034	3.681	-0.099	-0.072
-248.019	-200.000	0.026	-0.438
-247.005	-200.000	0.004	0.038
-245.990	-80.144	0.058	-0.020
-244.976	311.382	0.072	0.135
-243.961	71.425	-0.175	-0.182
-242.946	-1.435	-0.070	0.050
-241.932	-111.492	0.514	-0.105
-240.917	-200.000	0.012	-0.347
-239.903	800.000	0.086	0.248
-238.888	-51.362	0.143	0.067
-237.873	-47.921	0.336	-0.163
-236.859	-52.347	-0.273	0.127
-235.844	-47.936	0.066	0.032
-234.830	-77.128	-0.164	0.057
-233.815	-37.231	0.286	-0.154
-232.800	108.322	-0.111	0.132
-231.786	-112.440	0.253	-0.051
-230.771	-10.423	-0.037	0.025
-229.757	429.115	-0.083	-0.180
-228.742	-53.102	0.169	0.078
-227.727	-102.919	-0.349	-0.083
-226.713	63.440	-0.221	0.222
-225.698	-200.000	0.008	-0.137
-224.684	148.478	-0.038	0.052
-223.669	-34.812	-0.170	-0.093
-222.655	800.000	0.125	-0.360
-221.640	-73.781	0.231	-0.084
-220.625	800.000	0.076	0.226
-219.611	166.646	-0.058	0.082
-218.596	559.861	0.071	-0.171
-217.582	-200.000	0.028	-0.234
-216.567	412.581	0.042	0.088
-215.552	800.000	-0.069	0.277
-214.538	-200.000	0.037	0.278
-213.523	-15.778	-0.095	-0.061
-212.509	-69.852	0.056	0.021
-211.494	-22.529	0.274	0.166
-210.479	357.700	-0.284	0.568
-209.465	800.000	0.048	0.210
-208.450	-155.709	0.163	0.010
-207.436	216.715	-0.170	0.270
-206.421	-23.778	0.083	0.050
-205.406	-200.000	0.036	-0.273
-204.392	-23.649	0.256	0.154
-203.377	-82.068	0.089	0.029
-202.363	-200.000	-0.031	-0.270
-201.348	800.000	0.023	-0.098
-200.333	418.631	0.087	0.187
-199.319	569.465	-0.069	-0.168
-198.304	19.059	0.241	0.194
-197.290	800.000	-0.074	0.273
-196.275	33.110	-0.096	-0.083
-195.260	-151.900	-0.080	0.006
-194.246	-101.499	0.279	0.068
-193.231	-51.553	0.282	-0.132
-192.217	-200.000	-0.016	0.464
-191.202	800.000	-0.048	0.192
-190.187	-200.000	-0.011	-0.116
-189.173	146.214	0.212	-0.285
-188.158	287.967	-0.151	-0.274
-187.144	-104.409	0.059	0.014
-186.129	-74.504	-0.330	0.119
-185.114	-111.345	-0.189	0.039
-184.100	-200.000	0.011	0.219
-183.085	-105.888	-0.319	0.072
-182.071	-83.372	-0.228	0.073
-181.056	-41.539	-0.271	0.139
-180.042	-72.827	-0.088	-0.032
-179.027	-68.953	-0.248	-0.096
-178.012	-12.029	-0.263	-0.173
-176.998	-45.693	0.102	-0.051
-175.983	-20.123	0.302	-0.186
-174.969	38.193	0.100	0.089
-173.954	-148.558	-0.090	-0.007
-172.939	63.781	0.098	-0.099
-171.925	-54.554	0.422	0.191
-170.910	-200.000	0.011	0.263
-169.896	800.000	0.038	-0.163
-168.881	195.673	0.163	-0.248
-167.866	-47.839	-0.279	-0.135
-166.852	184.505	0.267	-0.396
-165.837	-200.000	-0.009	0.324
-164.823	800.000	-0.055	0.196
-163.808	-22.336	-0.110	-0.067
-162.793	800.000	-0.026	-0.085
-161.779	-200.000	0.009	-0.119
-160.764	139.433	-0.254	-0.334
-159.750	340.583	0.157	-0.307
-158.735	54.662	0.102	-0.099
-157.720	28.118	0.177	0.149
-156.706	495.302	-0.117	-0.268
-155.691	172.412	-0.162	-0.233
-154.677	800.000	-0.072	0.227
-153.662	553.178	0.085	-0.205
-152.647	672.578	-0.133	0.344
-151.633	-136.740	-0.252	-0.029
-150.618	-126.605	-0.147	0.022
-149.604	129.272	0.149	-0.191
-148.589	65.012	-0.041	-0.041
-147.574	800.000	-0.093	-0.265
-146.560	-200.000	0.007	-0.051
-145.545	-129.815	0.432	-0.059
-144.531	445.252	-0.017	-0.038
-143.516	-34.442	-0.182	0.100
-142.502	-200.000	0.086	-0.435
-141.487	315.796	0.140	-0.263
-140.472	-73.166	-0.101	0.037
-139.458	138.874	0.122	0.161
-138.443	-104.753	0.192	0.044
-137.429	-84.844	-0.186	-0.058
-136.414	21.606	-0.176	0.143
-135.399	-93.051	0.209	0.058
-134.385	63.349	0.122	-0.122
-133.370	303.178	0.185	-0.343
-132.356	-90.501	0.206	-0.060
-131.341	67.507	-0.146	0.149
-130.326	216.558	0.126	-0.201
-129.312	21.820	-0.169	-0.137
-128.297	-155.580	-0.170	-0.011
-127.283	-200.000	0.013	0.061
-126.268	-66.374	-0.355	0.141
-125.253	-66.502	0.014	-0.005
-124.239	-200.000	-0.025	0.214
-123.224	800.000	0.053	0.209
-122.210	-15.225	0.115	0.073
