DTS Sentinel unit serial number:	SN413079Multiplexer serial number:	ORYXHardware model number:	OX4-SRSoftware version number:	ORYX F/W v4.00 Oryx Data Collector v3.7.2.0data status	okinstallation	princeton_trtdifferential loss correction	single-endedforward channel	channel 1reverse channel	N/Adate	2019/09/16time	06:18:36forward acquisition time	60.00reverse acquisition time	0.00gamma	496.2192k internal	0.2331k external	0.2331temperature offset calibration	0.9986default loss term (dB/km)	0.3790temperature slope calibration	1.0000multiplexer offset coefficient	1.0000multiplexer slope coefficient	1.0000fibre end	0.00T internal ref (°C)	27.44T ext. ref 1 (°C)	11.34T ext. ref 2 (°C)	21.67length (m)	temperature (°C)	Stokes	anti-Stokes-747.200	-200.000	0.027	0.219
-746.185	-63.665	0.099	-0.041
-745.171	688.519	-0.085	-0.222
-744.156	36.520	-0.101	-0.089
-743.142	-130.676	-0.403	-0.055
-742.127	-105.363	-0.107	0.024
-741.112	556.118	0.111	0.268
-740.098	681.693	-0.168	0.440
-739.083	182.083	0.148	0.220
-738.069	-200.000	-0.007	0.258
-737.054	-200.000	0.055	0.340
-736.039	-200.000	0.007	-0.119
-735.025	22.779	-0.156	-0.129
-734.010	-112.100	0.275	0.056
-732.996	-26.516	-0.255	-0.150
-731.981	-48.609	-0.236	-0.114
-730.966	-77.826	-0.181	-0.063
-729.952	-28.011	-0.217	0.126
-728.937	800.000	-0.116	0.344
-727.923	-139.296	-0.101	-0.011
-726.908	225.979	0.072	0.117
-725.894	800.000	0.060	-0.199
-724.879	38.759	0.172	0.154
-723.864	-8.302	0.232	-0.157
-722.850	652.303	-0.050	0.128
-721.835	-200.000	-0.084	0.646
-720.821	-112.046	0.385	0.078
-719.806	-120.100	-0.463	0.080
-718.791	122.527	-0.186	-0.233
-717.777	92.597	0.102	-0.116
-716.762	-200.000	0.011	-0.113
-715.748	-20.296	-0.223	0.138
-714.733	800.000	0.113	-0.438
-713.718	646.964	0.049	0.125
-712.704	-30.213	-0.214	0.122
-711.689	800.000	-0.077	0.316
-710.675	241.859	0.089	-0.150
-709.660	-200.000	-0.024	-0.250
-708.645	54.125	0.256	0.248
-707.631	-96.857	-0.134	0.035
-706.616	-200.000	-0.044	-0.213
-705.602	150.134	-0.156	0.212
-704.587	183.754	0.158	0.235
-703.572	-33.829	-0.224	-0.124
-702.558	-90.024	-0.010	0.003
-701.543	-18.918	-0.255	-0.160
-700.529	-59.450	0.259	-0.112
-699.514	329.602	-0.143	-0.276
-698.499	-7.807	0.168	-0.114
-697.485	-100.415	-0.313	-0.078
-696.470	-200.000	0.015	-0.190
-695.456	800.000	-0.018	-0.067
-694.441	156.053	-0.131	0.181
-693.426	284.558	0.142	-0.257
-692.412	-53.286	-0.192	-0.089
-691.397	484.361	-0.041	-0.093
-690.383	-124.506	0.125	0.019
-689.368	-52.379	-0.467	0.217
-688.354	-200.000	-0.026	0.284
-687.339	-127.911	-0.191	-0.028
-686.324	278.499	-0.128	0.229
-685.310	115.062	-0.100	0.122
-684.295	-58.107	0.078	-0.034
-683.281	-89.977	-0.384	-0.112
-682.266	800.000	0.060	0.238
-681.251	-174.929	-0.203	0.006
-680.237	112.448	-0.086	-0.104
-679.222	-200.000	-0.027	0.124
-678.208	-129.947	-0.404	-0.056
-677.193	236.619	-0.192	-0.318
-676.178	-86.178	-0.138	0.043
-675.164	-76.388	0.119	0.042
-674.149	-22.458	0.136	0.083
-673.135	289.419	-0.127	0.231
-672.120	-99.343	0.247	0.063
-671.105	-23.613	-0.180	-0.108
-670.091	-27.932	-0.247	0.144
-669.076	48.395	-0.272	0.255
-668.062	786.178	-0.091	0.252
-667.047	-200.000	-0.005	0.230
-666.032	-44.412	0.121	-0.061
-665.018	-127.558	-0.306	-0.044
-664.003	349.830	0.030	-0.060
-662.989	-200.000	-0.030	-0.170
-661.974	-5.750	0.136	0.094
-660.959	800.000	-0.060	0.221
-659.945	-69.891	-0.207	0.079
-658.930	275.043	0.068	-0.120
-657.916	-103.244	-0.386	0.091
-656.901	-17.998	-0.067	-0.042
-655.886	-21.261	-0.165	0.101
-654.872	-56.660	-0.266	0.118
-653.857	151.081	-0.209	0.285
-652.843	-80.216	-0.176	-0.059
-651.828	-200.000	-0.013	0.149
-650.814	70.204	0.070	-0.072
-649.799	162.626	0.131	-0.185
-648.784	800.000	0.099	0.312
-647.770	-48.472	-0.131	0.063
-646.755	-200.000	0.098	0.000
-645.741	-83.263	-0.145	-0.047
-644.726	-43.278	0.206	-0.105
-643.711	800.000	-0.042	0.136
-642.697	42.046	-0.126	-0.115
-641.682	185.103	0.090	0.133
-640.668	-17.663	-0.250	-0.158
-639.653	154.887	-0.289	-0.399
-638.638	101.914	-0.040	0.046
-637.624	-167.176	0.251	-0.010
-636.609	800.000	-0.079	-0.219
-635.595	-200.000	-0.021	-0.136
-634.580	-87.755	-0.273	0.083
-633.565	-200.000	-0.026	0.125
-632.551	476.500	-0.110	-0.249
-631.536	783.451	-0.092	0.254
-630.522	800.000	-0.067	-0.262
-629.507	-161.756	-0.173	0.009
-628.492	276.146	-0.149	-0.265
-627.478	-32.853	0.213	0.119
-626.463	88.647	-0.302	-0.336
-625.449	47.905	-0.043	-0.040
-624.434	70.594	0.114	0.118
-623.419	748.318	0.026	0.070
-622.405	634.565	0.069	-0.176
-621.390	248.748	0.157	0.266
-620.376	-199.563	-0.128	-0.001
-619.361	-200.000	-0.001	-0.081
-618.346	-140.809	-0.272	-0.028
-617.332	67.251	0.167	-0.171
-616.317	180.200	0.119	0.174
-615.303	-16.835	-0.126	-0.080
-614.288	-108.431	0.274	0.059
-613.273	-167.801	-0.333	-0.013
-612.259	-19.510	-0.070	-0.044
-611.244	64.157	-0.157	0.158
-610.230	-40.986	0.069	0.036
-609.215	-200.000	0.018	-0.177
-608.201	13.585	-0.158	0.123
-607.186	-159.203	-0.189	-0.011
-606.171	-200.000	0.024	0.159
-605.157	230.835	-0.128	-0.209
-604.142	53.958	-0.108	0.104
-603.128	272.776	-0.081	-0.143
-602.113	375.272	-0.049	0.099
-601.098	-71.281	0.136	0.051
-600.084	-57.272	-0.257	-0.113
-599.069	-98.780	-0.394	0.100
-598.055	-67.866	-0.171	-0.067
-597.040	246.622	-0.116	-0.196
-596.025	-95.533	0.059	0.016
-595.011	-107.703	-0.081	-0.018
-593.996	149.163	0.114	-0.154
-592.982	-88.745	-0.032	0.010
-591.967	-9.114	0.373	0.249
-590.952	-79.978	0.259	-0.087
-589.938	-175.315	0.316	-0.009
-588.923	-200.000	-0.036	-0.205
-587.909	65.607	-0.140	-0.142
-586.894	-27.853	-0.045	-0.026
-585.879	-200.000	0.013	-0.211
-584.865	25.636	0.218	0.182
-583.850	-164.908	0.088	0.004
-582.836	159.366	-0.027	-0.038
-581.821	-159.091	0.448	0.025
-580.806	-102.966	-0.337	0.080
-579.792	-36.356	-0.240	-0.129
-578.777	101.374	-0.337	0.393
-577.763	-200.000	0.003	0.051
-576.748	-200.000	-0.027	-0.171
-575.733	1.842	0.155	-0.112
-574.719	-61.010	-0.284	-0.120
-573.704	88.185	-0.097	-0.107
-572.690	-144.689	0.288	0.026
-571.675	-45.582	0.114	-0.056
-570.661	-200.000	0.004	0.172
-569.646	92.285	-0.241	0.271
-568.631	217.483	-0.101	0.161
-567.617	248.079	0.123	0.207
-566.602	-3.308	-0.290	0.202
-565.588	7.364	0.273	-0.204
-564.573	521.109	-0.136	0.320
-563.558	75.696	0.279	0.294
-562.544	800.000	0.025	-0.095
-561.529	800.000	0.010	-0.040
-560.515	-31.255	0.319	-0.179
-559.500	17.267	-0.261	-0.207
-558.485	370.137	-0.080	-0.161
-557.471	-51.178	-0.280	-0.131
-556.456	-29.830	0.089	-0.051
-555.442	335.291	-0.194	0.375
-554.427	-105.553	-0.318	0.072
-553.412	-91.882	-0.042	0.012
-552.398	206.046	-0.313	-0.486
-551.383	-53.334	-0.296	-0.136
-550.369	-123.188	-0.105	0.017
-549.354	-2.006	0.017	-0.012
-548.339	-91.512	0.226	0.064
-547.325	389.818	-0.199	-0.412
-546.310	-115.300	-0.068	-0.013
-545.296	142.176	0.126	0.166
-544.281	-141.791	0.220	0.022
-543.266	95.815	0.023	-0.026
-542.252	88.359	0.077	0.086
-541.237	67.789	0.134	-0.137
-540.223	-22.480	0.045	-0.027
-539.208	-70.814	0.323	-0.122
-538.193	-169.197	-0.379	0.014
-537.179	3.163	0.095	0.069
-536.164	171.490	-0.162	0.232
-535.150	-168.299	-0.021	-0.001
-534.135	14.770	-0.187	0.146
-533.121	141.666	0.097	-0.128
-532.106	800.000	-0.099	0.273
-531.091	7.678	-0.175	0.131
-530.077	-107.275	0.190	0.042
-529.062	-71.840	0.123	-0.046
-528.048	239.383	-0.161	-0.267
-527.033	262.689	-0.118	-0.205
-526.018	133.960	-0.214	0.276
-525.004	-126.365	0.247	0.037
-523.989	213.116	0.056	-0.089
-522.975	372.611	0.021	-0.043
-521.960	800.000	0.054	-0.190
-520.945	4.959	0.252	-0.185
-519.931	-200.000	0.019	0.250
-518.916	16.076	-0.259	-0.204
-517.902	126.623	-0.173	-0.219
-516.887	510.180	0.026	0.059
-515.872	-138.189	-0.230	-0.025
-514.858	-118.028	-0.146	0.026
-513.843	-139.503	0.211	0.022
-512.829	511.439	0.009	-0.021
-511.814	-9.983	-0.107	0.071
-510.799	322.560	0.099	0.189
-509.785	554.412	-0.128	0.307
-508.770	-200.000	0.021	0.153
-507.756	-200.000	-0.012	0.092
-506.741	-89.249	0.305	-0.090
-505.726	95.726	-0.048	-0.054
-504.712	-105.731	-0.373	-0.084
-503.697	-4.276	-0.145	0.100
-502.683	-172.875	0.352	0.011
-501.668	-39.636	-0.241	0.125
-500.653	-114.125	0.270	-0.052
-499.639	-200.000	0.157	-0.000
-498.624	-129.234	-0.194	-0.027
-497.610	800.000	0.011	-0.039
-496.595	-49.513	-0.213	-0.101
-495.581	-158.331	-0.194	-0.011
-494.566	-99.746	-0.380	-0.095
-493.551	-104.197	-0.314	0.073
-492.537	18.405	-0.316	0.251
-491.522	-93.823	0.028	0.008
-490.508	800.000	-0.099	-0.344
-489.493	542.954	-0.180	-0.428
-488.478	342.254	-0.105	0.205
-487.464	120.041	-0.105	-0.129
-486.449	38.238	0.205	0.182
-485.435	715.913	0.062	-0.163
-484.420	800.000	-0.072	0.242
-483.405	174.094	0.131	-0.189
-482.391	800.000	0.035	0.145
-481.376	-99.951	-0.190	-0.047
-480.362	569.135	-0.033	-0.080
-479.347	-200.000	-0.006	0.038
-478.332	-200.000	-0.087	0.397
-477.318	-55.054	0.176	0.079
-476.303	62.854	-0.114	0.114
-475.289	130.743	-0.190	0.243
-474.274	800.000	0.059	0.200
-473.259	800.000	-0.068	0.230
-472.245	177.269	-0.111	-0.160
-471.230	408.802	0.107	-0.225
-470.216	488.148	-0.097	-0.220
-469.201	-57.672	0.180	0.079
-468.186	126.926	-0.225	-0.284
-467.172	-200.000	-0.129	-0.583
-466.157	33.800	0.288	-0.249
-465.143	800.000	-0.034	-0.116
-464.128	-96.103	0.243	-0.064
-463.113	800.000	0.040	-0.113
-462.099	-125.560	0.172	-0.026
-461.084	1.759	0.074	-0.053
-460.070	800.000	-0.022	-0.074
-459.055	-200.000	0.017	-0.094
-458.040	-63.222	0.198	0.081
-457.026	-200.000	-0.024	-0.262
-456.011	-92.179	-0.250	0.070
-454.997	-200.000	-0.055	0.315
-453.982	-200.000	-0.009	0.128
-452.968	-200.000	0.024	0.136
-451.953	-122.156	0.142	-0.023
-450.938	-133.235	0.193	-0.024
-449.924	-200.000	-0.030	0.308
-448.909	-200.000	-0.002	-0.207
-447.895	-55.362	-0.102	0.045
-446.880	141.428	0.089	-0.117
-445.865	228.236	-0.262	-0.424
-444.851	-200.000	0.054	0.284
-443.836	116.355	0.163	0.199
-442.822	-124.648	-0.165	-0.025
-441.807	5.069	0.303	-0.222
-440.792	-35.391	-0.159	-0.086
-439.778	105.900	0.316	0.372
-438.763	-26.708	-0.252	0.146
-437.749	351.861	-0.147	0.289
-436.734	-47.002	0.093	0.045
-435.719	136.818	-0.027	0.036
-434.705	-200.000	0.001	0.438
-433.690	-61.086	-0.196	-0.082
-432.676	-200.000	-0.005	-0.138
-431.661	-200.000	0.034	-0.218
-430.646	67.275	0.219	0.222
-429.632	-41.407	0.302	-0.154
-428.617	34.976	-0.042	0.037
-427.603	800.000	0.073	-0.254
-426.588	-122.162	-0.138	0.022
-425.573	-200.000	-0.039	0.266
-424.559	800.000	0.138	-0.383
-423.544	82.918	0.145	0.156
-422.530	-155.769	0.137	-0.009
-421.515	800.000	-0.052	-0.152
-420.500	444.761	-0.080	-0.175
-419.486	-76.058	-0.301	0.106
-418.471	-152.482	0.292	0.021
-417.457	-63.572	0.160	-0.065
-416.442	-200.000	0.037	-0.329
-415.428	-134.848	-0.173	0.021
-414.413	132.908	0.110	-0.141
-413.398	-25.380	0.095	-0.056
-412.384	392.663	0.104	-0.216
-411.369	-200.000	0.003	-0.031
-410.355	519.302	0.051	-0.120
-409.340	59.130	0.307	0.300
-408.325	153.872	0.081	0.110
-407.311	165.722	0.049	0.068
-406.296	-96.353	0.276	0.072
-405.282	270.406	-0.101	0.176
-404.267	-54.757	0.040	0.018
-403.252	-200.000	-0.029	0.125
-402.238	-200.000	0.013	0.382
-401.223	-6.174	-0.197	-0.134
-400.209	180.488	-0.237	-0.345
-399.194	-61.445	-0.138	-0.058
-398.179	415.389	0.073	0.154
-397.165	35.417	-0.211	0.183
-396.150	-200.000	-0.042	-0.239
-395.136	55.833	-0.150	-0.144
-394.121	21.481	0.093	0.075
-393.106	161.361	0.170	0.236
-392.092	178.856	-0.030	-0.043
-391.077	-200.000	-0.027	0.146
-390.063	-132.147	-0.156	0.020
-389.048	102.834	-0.241	-0.280
-388.033	800.000	0.065	0.268
-387.019	-200.000	0.003	0.117
-386.004	289.957	-0.090	-0.162
-384.990	67.584	0.238	-0.241
-383.975	-126.839	-0.131	-0.019
-382.960	-122.661	-0.144	-0.023
-381.946	800.000	0.050	-0.173
-380.931	-200.000	0.004	0.352
-379.917	-103.020	-0.166	0.039
-378.902	56.130	0.062	-0.060
-377.888	48.844	-0.137	-0.127
-376.873	800.000	-0.049	0.155
-375.858	800.000	-0.087	-0.242
-374.844	-66.551	-0.273	-0.107
-373.829	90.916	0.175	-0.194
-372.815	-21.301	0.237	0.144
-371.800	2.701	0.140	-0.101
-370.785	-200.000	-0.072	-0.394
-369.771	-200.000	-0.020	0.129
-368.756	347.880	0.121	-0.236
-367.742	206.095	0.169	0.261
-366.727	800.000	0.103	0.305
-365.712	-13.912	0.123	0.079
-364.698	168.279	-0.091	-0.128
-363.683	-122.343	0.135	-0.022
-362.669	40.995	-0.239	-0.214
-361.654	800.000	0.019	-0.071
-360.639	286.047	-0.116	-0.207
-359.625	-200.000	0.051	0.230
-358.610	127.463	-0.077	0.097
-357.596	-131.391	0.276	-0.036
-356.581	242.118	0.152	-0.252
-355.566	-85.875	0.225	0.069
-354.552	-200.000	0.043	0.278
-353.537	148.482	-0.034	0.045
-352.523	800.000	0.086	-0.336
-351.508	-168.156	-0.165	-0.006
-350.493	106.380	0.076	0.090
-349.479	-200.000	-0.040	-0.217
-348.464	132.015	0.068	0.086
-347.450	-200.000	-0.015	0.185
-346.435	133.497	0.146	0.188
-345.420	-113.772	0.173	0.033
-344.406	168.239	-0.195	-0.275
-343.391	239.821	-0.112	-0.185
-342.377	-161.690	0.333	-0.017
-341.362	241.666	0.105	0.173
-340.348	800.000	-0.020	-0.068
-339.333	-200.000	0.063	-0.370
-338.318	-102.791	-0.287	0.068
-337.304	-134.683	0.155	-0.019
-336.289	-200.000	0.044	-0.346
-335.275	-64.859	-0.239	-0.096
-334.260	-200.000	0.028	0.179
-333.245	-93.967	0.075	0.020
-332.231	-200.000	-0.054	-0.263
-331.216	800.000	0.114	0.329
-330.202	800.000	-0.072	-0.225
-329.187	170.554	-0.190	0.270
-328.172	-136.320	0.196	-0.023
-327.158	800.000	0.016	-0.058
-326.143	800.000	-0.075	0.298
-325.129	-111.358	0.284	0.057
-324.114	105.965	-0.255	-0.299
-323.099	800.000	-0.129	0.367
-322.085	166.980	-0.157	0.221
-321.070	-18.562	0.287	0.177
-320.056	-56.615	0.449	-0.197
-319.041	-126.945	0.228	0.033
-318.026	312.603	0.063	0.117
-317.012	-200.000	0.009	0.091
-315.997	293.902	0.127	0.230
-314.983	104.360	0.104	0.121
-313.968	438.603	0.093	-0.201
-312.953	27.701	-0.204	0.170
-311.939	-200.000	-0.003	0.288
-310.924	-48.842	0.187	0.089
-309.910	-102.476	-0.146	0.035
-308.895	3.255	0.327	-0.236
-307.880	-200.000	-0.043	0.250
-306.866	-41.937	0.355	0.180
-305.851	800.000	0.012	-0.039
-304.837	-116.609	-0.093	-0.017
-303.822	800.000	-0.049	0.152
-302.807	-40.719	0.093	-0.048
-301.793	800.000	-0.076	0.302
-300.778	-76.906	0.149	-0.052
-299.764	-56.875	-0.146	-0.064
-298.749	-200.000	-0.016	-0.154
-297.735	76.518	-0.108	-0.113
-296.720	-8.842	-0.166	-0.110
-295.705	145.306	-0.207	0.274
-294.691	82.298	-0.078	-0.084
-293.676	-132.843	-0.076	-0.010
-292.662	483.484	0.074	0.166
-291.647	-200.000	0.018	-0.211
-290.632	213.710	-0.070	0.109
-289.618	108.790	0.107	-0.126
-288.603	800.000	0.068	0.254
-287.589	81.136	0.074	-0.079
-286.574	-74.973	0.039	0.014
-285.559	130.457	0.234	0.296
-284.545	217.917	-0.126	0.199
-283.530	-158.555	0.212	0.012
-282.516	800.000	0.051	-0.189
-281.501	-174.592	-0.213	-0.006
-280.486	-106.817	-0.132	0.029
-279.472	559.792	0.073	0.175
-278.457	800.000	0.016	0.064
-277.443	110.966	0.073	-0.087
-276.428	80.942	0.168	-0.179
-275.413	98.157	0.128	0.146
-274.399	-86.631	0.072	0.022
-273.384	-200.000	-0.001	-0.248
-272.370	95.805	0.177	-0.200
-271.355	-200.000	0.054	0.234
-270.340	35.223	0.190	0.164
-269.326	-116.943	-0.085	0.015
-268.311	-200.000	0.042	0.265
-267.297	-118.990	0.333	-0.058
-266.282	-42.253	0.466	0.235
-265.267	-116.171	0.106	-0.020
-264.253	143.373	-0.044	0.058
-263.238	456.271	0.040	0.088
-262.224	-54.193	-0.298	0.134
-261.209	133.640	-0.192	0.245
-260.195	800.000	-0.010	-0.036
-259.180	141.236	-0.238	0.312
-258.165	702.968	-0.098	-0.256
-257.151	-69.358	-0.236	-0.090
-256.136	-200.000	0.073	-0.353
-255.122	-91.349	-0.427	0.121
-254.107	26.510	0.074	0.062
-253.092	-101.892	0.352	-0.084
-252.078	-200.000	0.048	-0.213
-251.063	-200.000	-0.082	0.541
-250.049	-186.833	0.348	0.005
-249.034	214.506	0.213	0.332
-248.019	-200.000	0.049	0.231
-247.005	-64.824	0.186	-0.074
-245.990	42.480	-0.247	0.222
-244.976	-200.000	0.013	-0.083
-243.961	-200.000	0.001	0.177
-242.946	31.570	-0.076	-0.065
-241.932	189.774	-0.131	-0.193
-240.917	-75.003	-0.210	-0.074
-239.903	-122.469	0.364	0.058
-238.888	-58.859	0.240	0.102
-237.873	584.781	-0.010	-0.025
-236.859	56.582	-0.099	-0.095
-235.844	-106.067	-0.375	-0.083
-234.830	-56.016	0.112	0.049
-233.815	323.907	-0.118	0.223
-232.800	16.534	-0.140	0.109
-231.786	-167.997	-0.126	-0.005
-230.771	104.800	0.074	-0.087
-229.757	-79.837	-0.367	0.122
-228.742	-42.142	-0.063	-0.032
-227.727	-200.000	-0.031	-0.218
-226.713	800.000	-0.027	-0.112
-225.698	-51.945	-0.388	-0.178
-224.684	800.000	0.027	0.094
-223.669	-62.146	-0.219	-0.090
-222.655	-73.427	0.029	0.010
-221.640	-45.168	-0.254	-0.124
-220.625	413.758	-0.021	0.045
-219.611	-35.556	-0.186	0.100
-218.596	-200.000	-0.053	-0.274
-217.582	-196.528	0.386	0.003
-216.567	-129.483	-0.475	0.065
-215.552	-24.144	0.293	-0.173
-214.538	129.626	0.168	0.211
-213.523	97.755	-0.138	-0.157
-212.509	202.767	-0.041	-0.062
-211.494	-200.000	-0.014	-0.284
-210.479	800.000	-0.041	-0.161
-209.465	800.000	0.111	0.313
-208.450	166.736	-0.026	-0.036
-207.436	-135.429	-0.113	0.013
-206.421	624.093	0.186	-0.463
-205.406	173.231	-0.179	0.254
-204.392	-103.372	0.066	0.015
-203.377	-200.000	0.062	0.316
-202.363	330.862	-0.047	0.089
-201.348	481.122	-0.176	-0.394
-200.333	800.000	0.116	0.366
-199.319	-113.076	-0.150	-0.029
-198.304	-86.259	0.252	0.076
-197.290	99.558	0.075	0.085
-196.275	-187.949	0.146	0.002
-195.260	500.416	0.057	-0.130
-194.246	-65.410	-0.245	-0.097
-193.231	-110.592	0.252	-0.051
-192.217	-31.766	0.142	0.078
-191.202	85.024	0.138	-0.149
-190.187	121.140	0.189	-0.232
-189.173	369.771	0.224	-0.447
-188.158	163.125	-0.114	-0.158
-187.144	-6.053	0.235	-0.158
-186.129	96.407	0.045	0.051
-185.114	-77.306	-0.118	0.040
-184.100	-200.000	-0.003	-0.174
-183.085	800.000	0.096	-0.294
-182.071	102.549	0.052	-0.059
-181.056	-200.000	0.100	0.434
-180.042	382.957	-0.145	0.293
-179.027	-46.061	0.355	-0.172
-178.012	-200.000	0.024	-0.204
-176.998	6.865	0.221	0.162
-175.983	-200.000	-0.008	0.279
-174.969	129.285	0.113	-0.142
-173.954	-200.000	0.047	-0.345
-172.939	27.142	0.204	0.169
-171.925	-0.754	-0.108	0.075
-170.910	800.000	0.051	0.158
-169.896	-200.000	0.001	-0.112
-168.881	-6.082	0.158	-0.106
-167.866	19.466	0.149	0.118
-166.852	789.689	-0.024	-0.064
-165.837	-65.805	0.244	-0.096
-164.823	800.000	-0.008	0.028
-163.808	-117.865	-0.090	0.016
-162.793	-140.848	0.119	0.012
-161.779	800.000	-0.016	0.053
-160.764	-113.794	-0.307	-0.059
-159.750	620.180	-0.063	0.157
-158.735	-200.000	0.065	-0.406
-157.720	-126.472	0.158	-0.023
-156.706	-200.000	-0.019	0.518
-155.691	-200.000	-0.059	0.402
-154.677	283.843	0.162	0.286
-153.662	370.782	0.149	-0.298
-152.647	47.694	0.231	0.212
-151.633	11.900	0.162	0.123
-150.618	-68.429	0.097	0.037
-149.604	211.646	-0.049	0.075
-148.589	149.208	-0.044	0.058
-147.574	800.000	-0.085	0.361
-146.560	-128.107	0.271	-0.038
-145.545	-136.075	-0.369	-0.043
-144.531	-200.000	0.044	-0.214
-143.516	-200.000	0.036	0.198
-142.502	153.437	-0.073	0.099
-141.487	211.606	0.084	0.130
-140.472	-98.804	0.282	0.071
-139.458	-173.701	-0.205	0.006
-138.443	-188.008	-0.285	0.004
-137.429	31.500	-0.172	0.145
-136.414	800.000	0.072	0.268
-135.399	16.901	0.213	0.166
-134.385	-69.138	0.043	-0.016
-133.370	800.000	-0.057	-0.243
-132.356	-93.234	0.247	-0.067
-131.341	145.845	-0.081	-0.107
-130.326	430.134	0.062	-0.131
-129.312	800.000	-0.007	0.023
-128.297	116.156	0.014	0.017
-127.283	-162.594	0.207	0.010
-126.268	-200.000	-0.051	0.241
-125.253	487.188	-0.095	0.213
-124.239	16.792	0.104	0.081
-123.224	800.000	0.049	0.160
-122.210	7.711	0.328	0.241
