DTS Sentinel unit serial number:	SN413079Multiplexer serial number:	ORYXHardware model number:	OX4-SRSoftware version number:	ORYX F/W v4.00 Oryx Data Collector v3.7.2.0data status	okinstallation	princeton_trtdifferential loss correction	single-endedforward channel	channel 1reverse channel	N/Adate	2019/09/15time	10:10:35forward acquisition time	60.00reverse acquisition time	0.00gamma	496.2192k internal	0.2308k external	0.2308temperature offset calibration	0.9992default loss term (dB/km)	0.3790temperature slope calibration	1.0000multiplexer offset coefficient	1.0000multiplexer slope coefficient	1.0000fibre end	0.00T internal ref (°C)	34.19T ext. ref 1 (°C)	5.02T ext. ref 2 (°C)	29.97length (m)	temperature (°C)	Stokes	anti-Stokes-747.200	-200.000	-0.029	-0.237
-746.185	693.798	0.039	0.103
-745.171	351.068	0.094	0.189
-744.156	-64.391	-0.435	0.180
-743.142	140.725	0.193	-0.260
-742.127	640.641	-0.126	0.327
-741.112	14.674	0.393	-0.312
-740.098	-88.657	0.258	-0.078
-739.083	-200.000	0.043	0.346
-738.069	75.882	-0.338	0.363
-737.054	-127.574	0.226	-0.033
-736.039	-200.000	0.053	-0.240
-735.025	-83.871	-0.096	0.031
-734.010	-89.064	-0.075	0.023
-732.996	800.000	0.057	0.178
-731.981	242.948	-0.200	0.340
-730.966	21.959	-0.285	-0.236
-729.952	-114.680	0.100	0.019
-728.937	-20.678	0.186	-0.116
-727.923	-168.057	-0.358	-0.014
-726.908	90.534	-0.050	-0.057
-725.894	-107.958	0.209	-0.046
-724.879	-88.861	0.111	-0.034
-723.864	-200.000	0.034	-0.346
-722.850	412.196	-0.040	-0.086
-721.835	-200.000	0.049	-0.242
-720.821	-67.610	0.117	0.047
-719.806	-200.000	-0.032	-0.165
-718.791	-74.978	-0.217	0.079
-717.777	253.291	0.139	0.240
-716.762	-52.557	0.185	-0.087
-715.748	367.486	0.141	-0.290
-714.733	186.196	0.085	0.129
-713.718	116.891	0.081	0.101
-712.704	-66.243	0.284	-0.115
-711.689	-85.485	-0.113	-0.036
-710.675	-40.921	-0.105	-0.055
-709.660	246.694	0.165	-0.283
-708.645	417.434	0.182	-0.395
-707.631	-200.000	0.037	0.298
-706.616	12.547	0.317	-0.248
-705.602	312.854	0.143	0.273
-704.587	800.000	0.111	-0.471
-703.572	-133.548	0.172	0.022
-702.558	469.768	0.084	0.193
-701.543	800.000	-0.093	-0.283
-700.529	43.993	0.239	-0.222
-699.514	-200.000	-0.128	-0.000
-698.499	207.611	0.053	-0.084
-697.485	-46.793	0.381	-0.189
-696.470	202.864	0.126	0.197
-695.456	164.573	0.121	-0.173
-694.441	-200.000	-0.010	0.074
-693.426	-150.941	0.220	-0.017
-692.412	19.625	-0.123	-0.101
-691.397	605.136	0.036	0.092
-690.383	800.000	-0.050	-0.155
-689.368	-136.742	-0.326	-0.038
-688.354	298.475	0.166	-0.309
-687.339	-200.000	-0.007	-0.046
-686.324	31.518	0.311	-0.271
-685.310	323.977	-0.099	-0.191
-684.295	800.000	0.034	-0.149
-683.281	12.663	-0.108	-0.085
-682.266	800.000	-0.110	-0.321
-681.251	-200.000	0.026	-0.207
-680.237	800.000	-0.062	0.212
-679.222	800.000	-0.017	0.074
-678.208	476.368	-0.147	-0.336
-677.193	190.670	0.051	0.078
-676.178	72.173	-0.128	0.135
-675.164	-45.992	0.212	-0.106
-674.149	-200.000	0.030	0.329
-673.135	272.424	-0.241	0.431
-672.120	-69.994	-0.424	0.164
-671.105	94.431	0.138	-0.158
-670.091	-200.000	0.009	-0.135
-669.076	69.064	0.209	0.218
-668.062	-200.000	0.007	-0.309
-667.047	-200.000	0.018	-0.096
-666.032	244.984	-0.074	0.126
-665.018	-64.397	0.109	-0.045
-664.003	147.474	0.159	-0.218
-662.989	-122.998	0.161	-0.026
-661.974	-57.564	-0.025	-0.011
-660.959	150.308	0.124	0.171
-659.945	-200.000	0.012	0.121
-658.930	-200.000	0.040	0.188
-657.916	210.404	-0.160	-0.254
-656.901	-200.000	0.019	-0.116
-655.886	-145.703	0.286	-0.026
-654.872	800.000	0.100	0.318
-653.857	471.524	0.141	0.320
-652.843	-45.668	-0.214	0.107
-651.828	-82.936	0.395	-0.129
-650.814	221.240	-0.069	0.112
-649.799	-200.000	-0.040	0.222
-648.784	-64.661	0.083	0.034
-647.770	-127.731	-0.288	0.042
-646.755	-193.598	-0.126	-0.001
-645.741	21.961	-0.232	0.191
-644.726	-58.768	-0.032	0.014
-643.711	273.667	0.075	0.134
-642.697	-129.099	0.224	0.032
-641.682	-81.525	-0.098	0.033
-640.668	800.000	0.031	0.124
-639.653	800.000	-0.025	-0.077
-638.638	-53.261	0.243	-0.113
-637.624	96.534	-0.167	-0.194
-636.609	-198.626	-0.140	-0.001
-635.595	-96.749	-0.085	-0.023
-634.580	-200.000	-0.003	-0.050
-633.565	114.222	-0.116	-0.143
-632.551	-139.050	0.205	-0.022
-631.536	18.700	0.069	0.056
-630.522	800.000	-0.050	-0.171
-629.507	-19.674	0.239	-0.150
-628.492	-162.385	0.359	-0.018
-627.478	104.305	0.049	0.058
-626.463	44.029	-0.180	0.167
-625.449	28.657	0.064	-0.055
-624.434	41.821	-0.198	-0.181
-623.419	-200.000	0.056	0.284
-622.405	-119.721	-0.092	-0.016
-621.390	226.860	-0.107	-0.176
-620.376	-91.005	-0.069	-0.020
-619.361	23.261	-0.118	-0.098
-618.346	45.693	0.163	-0.153
-617.332	247.622	-0.072	0.123
-616.317	228.562	0.182	0.300
-615.303	-105.296	0.087	0.020
-614.288	-77.079	-0.090	0.032
-613.273	800.000	-0.048	-0.178
-612.259	-200.000	-0.020	0.161
-611.244	800.000	-0.056	0.168
-610.230	15.282	-0.129	-0.103
-609.215	800.000	-0.106	0.331
-608.201	-200.000	0.009	-0.057
-607.186	-168.894	0.326	0.012
-606.171	-30.166	0.041	0.023
-605.157	-18.852	0.090	-0.056
-604.142	-25.388	0.208	-0.124
-603.128	-30.725	0.091	0.052
-602.113	800.000	0.081	-0.312
-601.098	-200.000	-0.036	0.205
-600.084	166.069	-0.206	0.294
-599.069	582.548	-0.024	0.060
-598.055	800.000	-0.020	0.065
-597.040	-197.163	-0.050	0.000
-596.025	-200.000	0.015	0.132
-595.011	23.330	0.262	-0.218
-593.996	-6.363	0.399	0.275
-592.982	-27.265	0.155	-0.091
-591.967	-51.518	-0.169	0.080
-590.952	-66.237	-0.092	0.037
-589.938	32.157	0.143	-0.125
-588.923	-200.000	0.005	0.091
-587.909	800.000	-0.044	-0.135
-586.894	-63.373	0.114	0.047
-585.879	-200.000	0.009	0.112
-584.865	-51.618	-0.245	0.115
-583.850	92.026	-0.282	-0.321
-582.836	-200.000	0.023	-0.158
-581.821	48.221	-0.164	0.155
-580.806	-200.000	-0.076	-0.492
-579.792	-200.000	0.029	-0.151
-578.777	109.488	-0.119	0.144
-577.763	63.288	-0.275	-0.279
-576.748	-17.333	-0.176	0.112
-575.733	-200.000	-0.010	0.080
-574.719	9.614	-0.221	-0.169
-573.704	-156.285	-0.385	-0.024
-572.690	654.747	-0.086	0.222
-571.675	-200.000	0.017	-0.184
-570.661	-31.001	-0.244	0.139
-569.646	7.158	-0.099	-0.075
-568.631	-106.834	-0.388	0.087
-567.617	-151.071	0.316	-0.024
-566.602	-108.310	0.511	0.111
-565.588	-96.907	-0.256	-0.068
-564.573	289.380	0.074	0.136
-563.558	393.485	0.016	0.034
-562.544	-30.625	-0.057	-0.033
-561.529	227.096	0.135	-0.221
-560.515	800.000	-0.126	-0.421
-559.500	-191.819	-0.245	-0.002
-558.485	-200.000	0.028	0.232
-557.471	104.299	-0.151	0.179
-556.456	773.588	0.124	0.340
-555.442	368.922	-0.139	0.284
-554.427	-196.146	-0.060	-0.000
-553.412	800.000	-0.090	-0.284
-552.398	-83.373	-0.185	-0.060
-551.383	316.556	0.224	-0.428
-550.369	800.000	-0.038	0.120
-549.354	-72.166	0.249	0.093
-548.339	-200.000	-0.010	0.339
-547.325	-96.352	0.448	0.120
-546.310	198.638	-0.091	-0.141
-545.296	53.333	0.234	0.226
-544.281	-105.925	-0.185	-0.042
-543.266	319.832	-0.043	-0.082
-542.252	-35.887	-0.095	-0.052
-541.237	-161.074	-0.297	-0.016
-540.223	136.035	-0.109	0.144
-539.208	-47.796	0.421	0.206
-538.193	108.723	0.214	-0.257
-537.179	-136.419	-0.088	-0.010
-536.164	-200.000	-0.003	0.249
-535.150	4.394	0.103	-0.076
-534.135	593.872	0.094	-0.234
-533.121	629.395	-0.161	-0.411
-532.106	800.000	0.084	-0.325
-531.091	-200.000	-0.027	-0.199
-530.077	157.096	-0.042	0.058
-529.062	-138.449	0.056	0.006
-528.048	-124.145	-0.141	0.022
-527.033	-200.000	-0.056	0.365
-526.018	266.935	-0.190	0.335
-525.004	95.701	0.159	-0.182
-523.989	-130.768	0.101	-0.014
-522.975	-200.000	0.003	0.253
-521.960	203.146	0.071	-0.110
-520.945	-135.371	0.293	0.035
-519.931	247.658	-0.125	-0.213
-518.916	36.053	-0.124	-0.110
-517.902	-200.000	0.236	-0.001
-516.887	-200.000	-0.013	0.211
-515.872	-31.876	-0.325	-0.184
-514.858	217.090	0.173	0.278
-513.843	-153.039	-0.231	0.016
-512.829	4.521	-0.143	-0.106
-511.814	627.021	0.141	0.360
-510.799	-14.146	0.205	0.133
-509.785	63.814	-0.222	0.225
-508.770	-143.013	-0.036	0.004
-507.756	-94.889	-0.279	-0.076
-506.741	277.987	-0.163	0.292
-505.726	53.450	-0.239	-0.231
-504.712	-0.579	0.146	-0.104
-503.697	-47.030	-0.175	0.086
-502.683	-51.319	0.118	0.056
-501.668	-200.000	-0.098	-0.459
-500.653	494.079	-0.012	-0.028
-499.639	554.879	0.040	0.096
-498.624	-72.439	0.359	-0.134
-497.610	-42.939	-0.226	-0.116
-496.595	183.918	0.184	0.274
-495.581	269.283	0.113	0.200
-494.566	25.499	-0.145	0.121
-493.551	60.773	-0.040	-0.039
-492.537	134.960	-0.064	0.083
-491.522	-136.659	0.090	0.010
-490.508	-41.170	-0.168	0.087
-489.493	-200.000	-0.001	0.342
-488.478	-200.000	-0.019	0.337
-487.464	800.000	0.006	0.024
-486.449	-63.581	0.211	-0.087
-485.435	-109.207	-0.308	-0.066
-484.420	229.809	-0.076	0.124
-483.405	-166.833	-0.406	0.017
-482.391	-200.000	-0.006	0.270
-481.376	681.108	0.134	-0.351
-480.362	265.190	0.203	-0.356
-479.347	80.366	-0.148	0.161
-478.332	550.920	-0.105	0.253
-477.318	-200.000	-0.051	-0.419
-476.303	45.857	0.353	-0.328
-475.289	-200.000	-0.006	-0.031
-474.274	4.056	-0.313	0.231
-473.259	-97.358	-0.190	-0.050
-472.245	-122.850	-0.369	0.060
-471.230	800.000	0.100	0.329
-470.216	-200.000	-0.024	-0.115
-469.201	609.706	-0.050	-0.125
-468.186	-129.470	-0.218	0.030
-467.172	11.644	0.257	0.199
-466.157	115.742	-0.188	0.231
-465.143	104.483	0.110	0.131
-464.128	800.000	-0.092	0.329
-463.113	-64.043	-0.216	0.089
-462.099	-83.762	0.083	-0.026
-461.084	-200.000	0.068	0.376
-460.070	-142.303	0.243	0.024
-459.055	373.963	0.038	-0.078
-458.040	174.934	0.196	0.285
-457.026	-77.122	0.304	0.106
-456.011	179.463	0.033	0.048
-454.997	4.127	0.226	0.167
-453.982	-88.865	0.304	0.091
-452.968	108.530	-0.294	0.352
-451.953	-86.987	0.134	0.041
-450.938	800.000	0.076	-0.258
-449.924	800.000	-0.023	-0.088
-448.909	-169.516	-0.178	-0.007
-447.895	32.052	0.265	-0.229
-446.880	322.061	0.059	0.113
-445.865	339.781	0.134	-0.263
-444.851	-110.083	-0.164	0.034
-443.836	95.443	0.189	0.216
-442.822	-200.000	0.062	0.273
-441.807	-52.150	-0.079	-0.037
-440.792	-170.318	-0.327	-0.012
-439.778	-18.304	0.204	-0.128
-438.763	210.429	0.235	-0.371
-437.749	800.000	-0.012	0.047
-436.734	-110.041	-0.234	-0.049
-435.719	-200.000	-0.016	0.121
-434.705	155.797	-0.169	-0.234
-433.690	246.049	0.084	0.142
-432.676	410.060	0.051	-0.108
-431.661	174.273	-0.054	-0.078
-430.646	264.980	0.121	0.211
-429.632	-200.000	-0.021	-0.100
-428.617	-104.726	0.320	0.074
-427.603	429.012	-0.176	0.381
-426.588	77.381	-0.074	0.079
-425.573	645.069	0.063	-0.160
-424.559	320.487	0.065	0.124
-423.544	115.070	-0.154	-0.188
-422.530	-21.310	0.236	-0.145
-421.515	-37.991	-0.131	-0.070
-420.500	118.987	-0.229	-0.285
-419.486	160.832	0.083	0.116
-418.471	-81.076	0.374	-0.124
-417.457	60.837	-0.091	0.091
-416.442	-108.386	-0.172	-0.037
-415.428	-169.298	-0.031	0.001
-414.413	450.436	-0.099	0.219
-413.398	10.531	-0.030	0.023
-412.384	781.378	0.041	0.112
-411.369	800.000	-0.078	-0.272
-410.355	-50.778	0.397	0.187
-409.340	-76.607	-0.283	-0.100
-408.325	-131.182	0.225	-0.030
-407.311	-88.172	-0.209	-0.063
-406.296	-200.000	0.004	0.131
-405.282	800.000	-0.118	0.451
-404.267	-176.353	0.392	-0.010
-403.252	36.176	-0.080	0.071
-402.238	-7.258	-0.108	-0.074
-401.223	-200.000	0.059	0.287
-400.209	52.179	-0.281	-0.269
-399.194	52.688	0.255	-0.244
-398.179	-200.000	0.025	0.120
-397.165	800.000	-0.033	0.133
-396.150	146.062	0.061	-0.082
-395.136	-125.572	0.386	0.059
-394.121	-74.795	0.093	-0.033
-393.106	704.999	-0.077	-0.204
-392.092	93.392	-0.103	-0.117
-391.077	-82.165	0.297	-0.097
-390.063	-74.006	0.373	0.135
-389.048	60.365	0.329	-0.326
-388.033	640.729	-0.126	-0.322
-387.019	-200.000	-0.034	-0.178
-386.004	-173.013	0.116	0.004
-384.990	-200.000	0.015	0.421
-383.975	22.597	-0.030	0.025
-382.960	-89.506	-0.376	-0.111
-381.946	-47.335	0.211	-0.103
-380.931	-195.508	-0.114	0.001
-379.917	-107.963	0.360	-0.078
-378.902	389.435	0.125	0.260
-377.888	206.175	0.040	-0.063
-376.873	-77.105	-0.200	0.070
-375.858	34.507	-0.277	0.242
-374.844	-22.174	0.157	-0.095
-373.829	-200.000	0.008	-0.397
-372.815	-147.930	0.376	-0.031
-371.800	-200.000	0.034	-0.218
-370.785	-10.938	-0.338	-0.224
-369.771	-17.413	0.129	0.081
-368.756	33.704	0.160	0.139
-367.742	408.444	0.064	0.135
-366.727	741.042	-0.133	-0.358
-365.712	445.278	0.117	-0.257
-364.698	-65.224	-0.259	0.105
-363.683	-48.467	0.273	0.132
-362.669	-38.586	-0.116	-0.061
-361.654	-200.000	0.047	-0.250
-360.639	-200.000	-0.043	-0.274
-359.625	-200.000	-0.011	0.277
-358.610	-200.000	-0.014	-0.275
-357.596	-200.000	0.028	-0.164
-356.581	208.143	0.101	0.158
-355.566	-96.379	-0.220	-0.058
-354.552	-131.589	0.173	0.023
-353.537	-20.423	0.143	0.088
-352.523	157.846	-0.107	-0.148
-351.508	-30.107	-0.337	-0.192
-350.493	167.095	0.026	0.037
-349.479	-98.044	-0.226	0.058
-348.464	800.000	0.045	0.177
-347.450	-200.000	-0.034	-0.206
-346.435	-200.000	0.022	-0.186
-345.420	420.754	0.027	-0.059
-344.406	-161.302	-0.311	0.016
-343.391	-89.553	0.135	-0.040
-342.377	-98.636	0.250	0.064
-341.362	132.089	0.087	-0.112
-340.348	80.620	-0.096	-0.104
-339.333	-117.106	-0.155	-0.028
-338.318	-98.847	-0.214	0.054
-337.304	-78.029	0.215	-0.074
-336.289	116.283	-0.073	-0.089
-335.275	-102.489	0.340	0.081
-334.260	-74.610	-0.347	-0.125
-333.245	-126.608	-0.107	-0.016
-332.231	733.959	0.092	-0.246
-331.216	-47.796	0.083	0.040
-330.202	155.391	0.043	-0.060
-329.187	-3.860	0.195	0.135
-328.172	-200.000	0.079	0.491
-327.158	-103.934	0.128	-0.030
-326.143	-200.000	-0.055	-0.270
-325.129	-138.657	0.049	0.005
-324.114	800.000	0.080	-0.313
-323.099	41.011	0.128	-0.115
-322.085	-46.400	-0.486	-0.239
-321.070	-200.000	0.026	0.261
-320.056	-200.000	-0.019	0.120
-319.041	-99.125	0.620	-0.157
-318.026	-76.924	-0.352	-0.123
-317.012	188.291	-0.074	0.110
-315.997	-99.977	-0.079	-0.020
-314.983	26.697	0.163	0.137
-313.968	139.771	0.107	-0.141
-312.953	51.155	0.133	0.126
-311.939	800.000	-0.097	0.321
-310.924	188.057	0.067	0.100
-309.910	7.498	0.123	-0.092
-308.895	-89.259	0.081	0.024
-307.880	113.675	-0.028	-0.033
-306.866	-111.081	-0.350	0.072
-305.851	-73.939	-0.370	-0.134
-304.837	47.133	-0.087	0.081
-303.822	-134.910	0.350	0.042
-302.807	800.000	-0.058	-0.196
-301.793	-200.000	-0.016	-0.118
-300.778	-189.371	-0.192	0.002
-299.764	-89.631	0.087	-0.026
-298.749	-12.320	0.204	0.133
-297.735	298.712	-0.070	-0.129
-296.720	238.611	-0.038	0.063
-295.705	-200.000	0.083	-0.512
-294.691	515.355	0.018	0.043
-293.676	-200.000	-0.046	-0.434
-292.662	421.313	0.183	-0.391
-291.647	509.483	-0.104	0.242
-290.632	-21.797	0.083	0.051
-289.618	12.003	0.358	-0.275
-288.603	-87.048	-0.144	-0.044
-287.589	256.913	0.077	-0.132
-286.574	81.229	-0.143	-0.154
-285.559	-62.944	0.125	0.052
-284.545	800.000	-0.059	0.203
-283.530	-3.936	0.153	-0.106
-282.516	241.922	0.081	-0.136
-281.501	702.084	-0.049	0.130
-280.486	-200.000	0.010	0.311
-279.472	-10.234	0.133	-0.088
-278.457	257.025	0.023	-0.040
-277.443	54.951	-0.258	-0.249
-276.428	234.929	-0.171	-0.281
-275.413	396.957	0.062	-0.130
-274.399	800.000	-0.060	0.260
-273.384	-200.000	0.013	0.098
-272.370	-103.146	0.090	0.021
-271.355	800.000	-0.070	0.246
-270.340	720.636	-0.222	-0.589
-269.326	-89.066	-0.155	0.046
-268.311	6.592	0.082	-0.061
-267.297	-114.928	-0.111	-0.021
-266.282	751.532	0.064	-0.172
-265.267	-32.980	0.246	0.136
-264.253	800.000	0.013	-0.050
-263.238	-75.264	0.246	-0.088
-262.224	-137.004	-0.093	0.011
-261.209	216.710	0.101	-0.160
-260.195	157.400	-0.106	0.146
-259.180	-62.090	-0.375	0.156
-258.165	96.568	0.272	0.311
-257.151	800.000	-0.063	0.255
-256.136	-41.729	0.057	-0.029
-255.122	3.059	0.100	0.073
-254.107	-200.000	0.114	0.000
-253.092	-200.000	-0.035	0.154
-252.078	-63.447	-0.571	-0.234
-251.063	690.056	-0.139	-0.364
-250.049	-88.979	0.249	-0.074
-249.034	137.557	-0.209	0.273
-248.019	-200.000	-0.013	-0.232
-247.005	-200.000	-0.061	-0.399
-245.990	-96.082	-0.130	0.034
-244.976	-178.236	-0.180	-0.004
-243.961	198.568	0.303	0.463
-242.946	800.000	-0.061	0.178
-241.932	77.506	0.082	0.087
-240.917	-152.633	-0.189	0.013
-239.903	-83.235	-0.172	0.055
-238.888	-200.000	-0.066	0.400
-237.873	504.034	0.040	-0.093
-236.859	-200.000	-0.023	-0.105
-235.844	-94.661	0.068	0.018
-234.830	-102.888	0.210	-0.050
-233.815	-88.166	0.131	0.039
-232.800	-124.047	-0.146	-0.023
-231.786	-136.202	0.306	-0.036
-230.771	-139.712	0.325	0.034
-229.757	-59.953	-0.232	-0.099
-228.742	-200.000	-0.012	-0.133
-227.727	-200.000	-0.051	-0.397
-226.713	-16.119	-0.193	-0.122
-225.698	25.351	-0.225	0.186
-224.684	323.235	0.132	0.251
-223.669	9.182	-0.119	-0.090
-222.655	-76.284	0.075	0.026
-221.640	800.000	-0.080	-0.319
-220.625	-57.091	-0.267	-0.117
-219.611	-11.057	-0.083	-0.054
-218.596	-132.609	0.398	0.051
-217.582	289.293	-0.198	-0.358
-216.567	64.705	-0.200	-0.201
-215.552	-12.531	0.290	-0.188
-214.538	10.556	0.050	0.038
-213.523	679.264	0.107	0.278
-212.509	350.782	-0.042	0.082
-211.494	-160.376	0.285	-0.015
-210.479	155.393	0.047	-0.064
-209.465	-128.671	0.200	0.028
-208.450	15.057	0.270	-0.211
-207.436	-126.797	-0.117	-0.017
-206.421	47.744	-0.132	0.122
-205.406	324.447	0.100	0.190
-204.392	800.000	-0.083	0.246
-203.377	-200.000	-0.063	0.395
-202.363	94.835	0.182	-0.207
-201.348	199.716	-0.213	0.326
-200.333	-145.037	0.210	-0.019
-199.319	249.185	0.187	-0.316
-198.304	-61.831	-0.181	-0.076
-197.290	-200.000	0.036	-0.159
-196.275	-40.898	0.081	0.042
-195.260	-149.391	-0.245	0.019
-194.246	-71.653	-0.183	0.068
-193.231	272.927	0.084	0.147
-192.217	800.000	0.060	0.196
-191.202	-91.598	0.170	-0.048
-190.187	-33.158	0.260	-0.144
-189.173	-95.872	-0.177	0.047
-188.158	-82.696	0.049	0.016
-187.144	-200.000	0.028	-0.222
-186.129	-200.000	0.013	0.427
-185.114	-200.000	0.094	-0.419
-184.100	-142.389	0.166	-0.016
-183.085	-111.342	-0.190	0.038
-182.071	-153.218	-0.245	0.017
-181.056	106.715	0.257	0.303
-180.042	255.574	0.044	-0.076
-179.027	-3.159	-0.225	0.156
-178.012	112.189	-0.149	0.179
-176.998	-113.304	-0.367	0.072
-175.983	107.828	-0.071	-0.084
-174.969	800.000	-0.097	0.279
-173.954	131.067	-0.075	0.095
-172.939	365.255	-0.123	0.247
-171.925	-36.984	-0.180	-0.096
-170.910	67.631	-0.200	-0.203
-169.896	2.687	0.277	0.200
-168.881	-97.447	0.168	0.043
-167.866	-200.000	0.023	-0.192
-166.852	-93.462	0.250	0.069
-165.837	-146.732	-0.210	0.018
-164.823	-200.000	0.044	-0.263
-163.808	-71.701	-0.169	-0.063
-162.793	41.677	0.301	0.271
-161.779	59.868	-0.164	0.161
-160.764	-29.941	-0.267	-0.151
-159.750	-200.000	0.023	0.254
-158.735	250.292	0.084	-0.141
-157.720	800.000	0.021	0.073
-156.706	685.806	0.076	0.196
-155.691	270.954	-0.124	0.216
-154.677	-101.232	0.175	-0.042
-153.662	-200.000	0.033	0.238
-152.647	-151.882	0.359	-0.026
-151.633	-87.269	0.232	-0.070
-150.618	-77.356	-0.232	-0.080
-149.604	-23.294	0.161	0.096
-148.589	-73.456	-0.231	0.084
-147.574	-24.886	0.125	-0.074
-146.560	496.956	0.152	-0.346
-145.545	185.332	-0.087	0.128
-144.531	-200.000	-0.009	0.317
-143.516	-93.665	-0.358	-0.098
-142.502	80.312	-0.181	-0.194
-141.487	60.685	-0.201	0.198
-140.472	-200.000	0.001	0.311
-139.458	384.726	0.126	-0.258
-138.443	800.000	0.085	-0.319
-137.429	-112.693	0.159	0.031
-136.414	0.025	-0.168	-0.118
-135.399	-45.995	-0.285	-0.139
-134.385	-94.732	0.142	0.038
-133.370	-200.000	0.016	-0.466
-132.356	73.215	-0.153	0.159
-131.341	108.252	0.156	-0.185
-130.326	-154.595	0.373	0.025
-129.312	277.509	-0.134	-0.237
-128.297	-81.622	-0.304	-0.099
-127.283	66.334	-0.280	-0.282
-126.268	-100.617	0.095	0.023
-125.253	145.418	-0.171	-0.227
-124.239	-89.528	0.215	-0.063
-123.224	-76.090	0.273	-0.096
-122.210	-200.000	0.014	-0.073
