DTS Sentinel unit serial number:	SN413079Multiplexer serial number:	ORYXHardware model number:	OX4-SRSoftware version number:	ORYX F/W v4.00 Oryx Data Collector v3.7.2.0data status	okinstallation	princeton_trtdifferential loss correction	single-endedforward channel	channel 1reverse channel	N/Adate	2019/09/17time	15:50:35forward acquisition time	60.00reverse acquisition time	0.00gamma	496.2192k internal	0.2292k external	0.2292temperature offset calibration	0.9960default loss term (dB/km)	0.3790temperature slope calibration	1.0000multiplexer offset coefficient	1.0000multiplexer slope coefficient	1.0000fibre end	0.00T internal ref (°C)	39.27T ext. ref 1 (°C)	0.38T ext. ref 2 (°C)	37.87length (m)	temperature (°C)	Stokes	anti-Stokes-747.200	-31.516	0.193	-0.111
-746.185	78.085	-0.156	0.171
-745.171	-97.654	-0.303	0.080
-744.156	800.000	-0.171	0.505
-743.142	-115.913	-0.216	-0.041
-742.127	198.622	0.112	-0.175
-741.112	77.265	-0.218	0.238
-740.098	470.570	-0.107	0.246
-739.083	-88.427	-0.185	0.056
-738.069	-200.000	0.042	0.193
-737.054	267.142	0.159	0.284
-736.039	-200.000	0.003	0.018
-735.025	70.716	-0.266	0.282
-734.010	181.770	-0.060	0.090
-732.996	153.463	0.210	-0.294
-731.981	106.906	-0.046	-0.056
-730.966	557.033	-0.032	0.080
-729.952	-200.000	-0.037	-0.394
-728.937	800.000	-0.080	0.304
-727.923	-107.419	-0.208	-0.047
-726.908	-55.598	0.116	-0.053
-725.894	183.040	0.218	0.329
-724.879	-200.000	0.038	-0.204
-723.864	188.796	-0.210	-0.321
-722.850	-152.348	0.295	-0.022
-721.835	-192.626	0.161	-0.002
-720.821	-87.703	-0.081	0.025
-719.806	-70.806	-0.358	-0.138
-718.791	183.367	-0.102	-0.154
-717.777	145.191	0.123	-0.169
-716.762	246.873	-0.073	0.126
-715.748	111.613	-0.328	-0.404
-714.733	-99.857	-0.149	-0.038
-713.718	143.670	-0.133	-0.181
-712.704	-160.697	0.169	0.009
-711.689	-200.000	-0.023	0.157
-710.675	-69.189	-0.162	0.064
-709.660	-144.172	-0.268	0.026
-708.645	-17.976	0.135	-0.087
-707.631	-3.720	-0.075	0.053
-706.616	-200.000	-0.043	-0.410
-705.602	252.838	0.186	-0.324
-704.587	-39.023	-0.166	0.089
-703.572	-61.241	-0.257	-0.111
-702.558	75.621	0.150	0.161
-701.543	-45.361	-0.103	0.052
-700.529	356.839	-0.161	-0.329
-699.514	800.000	-0.047	-0.197
-698.499	-34.969	-0.120	0.067
-697.485	670.624	-0.119	-0.316
-696.470	-103.208	0.170	-0.041
-695.456	-113.052	-0.323	-0.065
-694.441	-200.000	0.008	-0.214
-693.426	793.515	0.126	0.355
-692.412	-81.932	0.225	0.075
-691.397	62.598	0.114	-0.116
-690.383	10.811	-0.164	-0.128
-689.368	13.187	-0.061	-0.048
-688.354	-200.000	0.020	0.207
-687.339	125.241	-0.098	-0.126
-686.324	180.595	0.108	-0.162
-685.310	-176.189	-0.151	-0.004
-684.295	97.837	0.264	0.310
-683.281	46.363	0.252	0.239
-682.266	180.409	-0.078	-0.117
-681.251	-200.000	-0.013	-0.118
-680.237	-148.741	0.229	0.019
-679.222	-182.460	-0.140	0.003
-678.208	356.970	0.065	-0.132
-677.193	438.064	-0.080	-0.179
-676.178	-200.000	0.004	-0.219
-675.164	178.173	-0.188	-0.281
-674.149	366.043	-0.058	0.119
-673.135	100.244	-0.158	-0.187
-672.120	39.910	-0.185	-0.169
-671.105	52.107	0.217	-0.211
-670.091	-14.215	0.157	0.103
-669.076	-200.000	0.046	0.367
-668.062	229.064	0.056	0.094
-667.047	-82.294	0.101	-0.033
-666.032	-200.000	0.013	-0.205
-665.018	132.102	-0.052	0.068
-664.003	222.018	-0.242	-0.397
-662.989	235.604	-0.094	-0.159
-661.974	800.000	0.079	0.226
-660.959	-200.000	-0.031	0.269
-659.945	87.651	-0.457	-0.517
-658.930	-26.967	0.183	-0.109
-657.916	-93.748	0.171	0.048
-656.901	800.000	-0.131	-0.437
-655.886	-200.000	0.000	-0.014
-654.872	800.000	0.091	-0.324
-653.857	112.939	-0.175	0.216
-652.843	8.285	-0.125	0.096
-651.828	39.076	0.159	0.145
-650.814	-118.726	0.063	0.011
-649.799	-84.320	0.306	-0.099
-648.784	477.223	0.066	0.151
-647.770	-84.651	-0.162	-0.052
-646.755	-67.261	-0.147	0.059
-645.741	662.432	0.147	-0.386
-644.726	333.556	0.069	-0.136
-643.711	-92.016	0.460	-0.133
-642.697	-106.081	0.102	0.023
-641.682	66.561	0.121	0.125
-640.668	73.894	0.013	-0.014
-639.653	-200.000	-0.019	0.324
-638.638	59.412	-0.095	0.096
-637.624	-79.165	0.014	0.005
-636.609	151.795	0.086	0.120
-635.595	-200.000	-0.023	-0.230
-634.580	130.766	0.114	0.150
-633.565	-200.000	-0.003	-0.064
-632.551	380.600	0.092	-0.192
-631.536	-142.516	0.069	-0.007
-630.522	-200.000	0.056	-0.316
-629.507	207.367	-0.153	-0.243
-628.492	-117.026	0.108	-0.020
-627.478	408.679	-0.080	0.173
-626.463	800.000	-0.102	0.294
-625.449	415.236	-0.046	0.101
-624.434	-90.351	-0.274	0.081
-623.419	25.256	0.184	0.155
-622.405	-116.297	-0.455	0.086
-621.390	-9.304	0.123	0.084
-620.376	-56.196	-0.082	-0.037
-619.361	-114.441	-0.134	-0.026
-618.346	-28.764	0.135	-0.079
-617.332	-182.355	0.203	0.004
-616.317	-200.000	-0.018	0.093
-615.303	-200.000	-0.074	0.339
-614.288	-155.857	-0.203	0.013
-613.273	-95.465	0.223	0.061
-612.259	156.773	0.077	0.109
-611.244	-31.877	-0.145	0.083
-610.230	800.000	-0.022	0.068
-609.215	-13.772	0.193	0.127
-608.201	70.681	-0.147	0.154
-607.186	25.248	-0.184	0.156
-606.171	-89.581	-0.326	-0.097
-605.157	-23.830	-0.188	0.115
-604.142	-105.251	0.134	0.031
-603.128	-200.000	0.000	-0.199
-602.113	-137.990	-0.113	-0.013
-601.098	489.549	-0.124	-0.289
-600.084	-113.939	0.012	-0.002
-599.069	-52.914	0.263	-0.123
-598.055	-200.000	0.061	0.388
-597.040	311.969	-0.155	0.296
-596.025	-200.000	0.019	0.169
-595.011	-66.482	0.183	0.074
-593.996	-111.373	-0.256	0.053
-592.982	-200.000	0.015	0.168
-591.967	300.351	-0.083	-0.155
-590.952	142.250	-0.083	-0.112
-589.938	-88.980	-0.167	-0.050
-588.923	-143.474	-0.175	-0.017
-587.909	-124.885	-0.166	-0.026
-586.894	-78.816	0.230	-0.080
-585.879	-27.414	0.037	-0.022
-584.865	-90.764	-0.221	-0.065
-583.850	56.104	-0.209	-0.206
-582.836	777.228	-0.022	-0.060
-581.821	133.464	-0.014	0.019
-580.806	-200.000	-0.012	-0.221
-579.792	-158.876	-0.189	0.011
-578.777	800.000	-0.064	-0.244
-577.763	80.745	-0.093	-0.102
-576.748	28.108	0.064	-0.055
-575.733	-200.000	-0.026	0.241
-574.719	800.000	-0.134	0.480
-573.704	-37.977	-0.027	0.015
-572.690	-13.058	0.153	-0.101
-571.675	24.809	-0.058	0.049
-570.661	-106.282	0.209	0.048
-569.646	730.319	-0.212	-0.577
-568.631	-183.639	0.113	-0.002
-567.617	-111.056	0.304	0.063
-566.602	800.000	0.062	0.185
-565.588	-190.600	-0.174	0.002
-564.573	-44.734	-0.209	0.106
-563.558	-62.193	-0.151	0.064
-562.544	-200.000	-0.029	0.176
-561.529	-36.876	-0.203	0.111
-560.515	800.000	-0.079	0.314
-559.500	199.147	-0.049	0.077
-558.485	560.899	-0.018	0.045
-557.471	31.611	0.087	-0.076
-556.456	287.974	0.100	0.185
-555.442	-81.613	0.184	-0.062
-554.427	-81.045	0.025	0.008
-553.412	776.283	0.011	-0.031
-552.398	235.938	0.150	-0.253
-551.383	165.427	-0.116	-0.166
-550.369	-200.000	0.015	0.108
-549.354	67.691	-0.164	0.170
-548.339	-109.283	-0.136	0.029
-547.325	-200.000	-0.016	-0.074
-546.310	328.836	0.057	-0.112
-545.296	-58.125	0.132	0.058
-544.281	-200.000	0.015	-0.096
-543.266	88.000	0.044	0.050
-542.252	-86.096	-0.523	0.164
-541.237	-127.234	0.235	0.035
-540.223	-200.000	-0.025	0.396
-539.208	-74.562	-0.192	0.070
-538.193	-30.217	-0.176	0.102
-537.179	21.254	0.108	0.089
-536.164	-173.678	-0.187	-0.006
-535.150	-113.399	-0.248	0.049
-534.135	147.547	0.136	0.186
-533.121	-32.279	0.275	-0.156
-532.106	790.960	-0.108	-0.300
-531.091	112.974	-0.202	0.249
-530.077	138.147	0.109	0.144
-529.062	248.482	0.131	0.226
-528.048	800.000	-0.050	-0.149
-527.033	191.706	-0.210	-0.322
-526.018	-63.044	-0.245	0.103
-525.004	371.016	0.056	-0.115
-523.989	800.000	-0.025	-0.072
-522.975	-14.126	-0.253	0.166
-521.960	-49.035	0.148	-0.072
-520.945	-59.776	-0.190	-0.082
-519.931	-200.000	-0.004	-0.073
-518.916	-118.565	0.335	0.060
-517.902	113.077	-0.075	0.093
-516.887	800.000	0.019	0.072
-515.872	-159.388	-0.207	-0.012
-514.858	375.149	-0.041	-0.084
-513.843	236.568	0.092	0.154
-512.829	-76.662	0.285	-0.101
-511.814	33.532	0.057	-0.050
-510.799	184.103	-0.156	0.234
-509.785	189.207	0.129	0.197
-508.770	5.055	0.162	-0.121
-507.756	-200.000	-0.039	0.330
-506.741	-200.000	0.047	0.454
-505.726	-8.173	-0.356	-0.243
-504.712	-169.827	-0.221	-0.008
-503.697	-14.688	-0.172	0.112
-502.683	-10.046	-0.405	-0.273
-501.668	296.839	0.103	-0.191
-500.653	-122.074	-0.047	-0.008
-499.639	-77.717	-0.158	-0.056
-498.624	-178.992	-0.200	0.005
-497.610	-92.678	0.135	-0.038
-496.595	-200.000	0.052	-0.261
-495.581	112.517	0.255	-0.313
-494.566	800.000	-0.098	-0.275
-493.551	466.330	-0.051	-0.116
-492.537	800.000	0.042	-0.161
-491.522	543.586	-0.031	-0.075
-490.508	-119.187	0.378	0.067
-489.493	0.374	0.286	-0.207
-488.478	-76.362	-0.317	-0.113
-487.464	504.021	0.069	0.163
-486.449	-61.341	-0.258	-0.110
-485.435	247.278	-0.105	0.179
-484.420	55.008	0.128	0.125
-483.405	800.000	0.085	0.314
-482.391	-30.622	0.335	-0.192
-481.376	-94.924	-0.249	-0.068
-480.362	497.295	-0.062	0.144
-479.347	-74.736	0.075	0.027
-478.332	79.342	0.042	0.046
-477.318	-200.000	0.033	0.199
-476.303	-32.488	0.221	0.125
-475.289	155.300	0.141	-0.196
-474.274	800.000	-0.159	-0.478
-473.259	800.000	0.068	-0.218
-472.245	-188.152	-0.049	-0.001
-471.230	800.000	-0.045	0.156
-470.216	-200.000	-0.000	-0.025
-469.201	800.000	0.053	-0.212
-468.186	-1.265	-0.092	0.066
-467.172	800.000	0.054	-0.188
-466.157	-134.494	-0.090	0.011
-465.143	63.587	0.199	0.202
-464.128	-200.000	-0.082	0.385
-463.113	-27.886	0.344	0.202
-462.099	-134.465	0.352	0.044
-461.084	-88.586	0.170	-0.051
-460.070	-114.280	-0.424	-0.083
-459.055	-3.824	0.115	-0.081
-458.040	146.310	0.128	0.174
-457.026	125.395	0.004	0.005
-456.011	109.965	0.085	-0.104
-454.997	89.583	-0.119	0.135
-453.982	60.070	-0.236	-0.236
-452.968	55.106	-0.076	0.074
-451.953	-200.000	-0.015	0.127
-450.938	-93.640	0.159	0.045
-449.924	62.984	0.326	0.330
-448.909	33.032	-0.213	0.186
-447.895	-67.748	-0.279	0.110
-446.880	-130.777	-0.153	-0.021
-445.865	-200.000	0.003	0.136
-444.851	27.486	-0.054	0.046
-443.836	166.432	-0.174	-0.250
-442.822	-83.917	0.106	-0.034
-441.807	-69.220	0.226	0.088
-440.792	-200.000	0.012	-0.091
-439.778	-73.912	0.341	-0.125
-438.763	-200.000	-0.044	-0.271
-437.749	-200.000	-0.008	-0.309
-436.734	-37.318	0.183	-0.099
-435.719	-200.000	0.023	-0.120
-434.705	530.153	0.147	0.350
-433.690	-119.882	0.310	-0.054
-432.676	800.000	-0.013	0.046
-431.661	-170.540	0.263	-0.009
-430.646	-200.000	0.008	-0.078
-429.632	570.691	-0.090	0.221
-428.617	-89.291	-0.238	0.071
-427.603	91.137	0.070	0.080
-426.588	200.927	0.118	0.184
-425.573	81.712	0.130	0.143
-424.559	475.262	-0.159	-0.364
-423.544	-126.321	-0.248	0.037
-422.530	59.063	0.138	0.137
-421.515	-200.000	0.015	-0.190
-420.500	252.085	-0.106	-0.183
-419.486	-126.409	-0.151	0.023
-418.471	-74.287	-0.068	-0.025
-417.457	184.449	-0.106	0.158
-416.442	44.246	0.206	-0.191
-415.428	178.881	-0.173	-0.255
-414.413	115.096	0.132	0.163
-413.398	508.311	-0.082	0.191
-412.384	150.991	-0.074	-0.102
-411.369	-16.831	0.161	-0.103
-410.355	-21.834	0.151	-0.093
-409.340	-152.566	0.231	-0.017
-408.325	705.102	-0.095	0.254
-407.311	28.006	0.170	-0.145
-406.296	-36.604	-0.449	-0.244
-405.282	-65.809	0.320	0.129
-404.267	-138.809	-0.098	0.011
-403.252	800.000	0.041	-0.160
-402.238	-112.430	-0.109	0.022
-401.223	354.235	0.136	-0.273
-400.209	19.875	0.321	0.261
-399.194	-100.669	-0.121	0.030
-398.179	252.259	0.088	0.151
-397.165	-119.493	-0.081	0.014
-396.150	-186.508	0.311	-0.004
-395.136	90.427	0.241	-0.272
-394.121	-55.129	-0.248	-0.113
-393.106	-177.548	0.236	-0.006
-392.092	-70.423	0.249	-0.095
-391.077	-29.551	0.187	-0.108
-390.063	-13.606	0.143	-0.093
-389.048	52.062	-0.086	0.083
-388.033	-2.732	-0.385	-0.272
-387.019	166.035	-0.188	-0.269
-386.004	-23.498	0.155	0.094
-384.990	39.646	0.118	0.107
-383.975	145.891	0.094	0.127
-382.960	278.051	0.120	0.215
-381.946	156.587	-0.059	-0.082
-380.931	159.384	-0.143	-0.201
-379.917	752.451	0.048	0.131
-378.902	800.000	-0.036	-0.110
-377.888	16.061	-0.020	-0.016
-376.873	-15.766	0.060	-0.038
-375.858	800.000	0.090	0.393
-374.844	158.265	-0.104	-0.146
-373.829	62.479	-0.249	-0.251
-372.815	-129.151	0.386	0.054
-371.800	800.000	-0.019	-0.058
-370.785	-135.301	0.132	0.016
-369.771	-200.000	-0.010	-0.058
-368.756	-160.718	0.282	0.015
-367.742	800.000	0.038	0.153
-366.727	-200.000	-0.009	0.263
-365.712	308.512	0.162	-0.305
-364.698	-98.843	0.179	0.046
-363.683	27.054	-0.191	-0.162
-362.669	-90.513	-0.053	0.016
-361.654	-5.117	-0.234	-0.162
-360.639	316.757	0.138	-0.263
-359.625	459.005	0.199	0.446
-358.610	-59.524	-0.257	0.111
-357.596	32.049	0.114	0.099
-356.581	219.323	0.172	-0.277
-355.566	-69.399	0.236	0.091
-354.552	170.336	-0.064	0.092
-353.537	226.347	-0.174	-0.284
-352.523	800.000	-0.053	0.160
-351.508	40.894	0.307	-0.279
-350.493	800.000	-0.077	0.222
-349.479	800.000	-0.024	0.089
-348.464	188.171	-0.142	0.214
-347.450	173.677	0.072	-0.105
-346.435	7.860	0.053	-0.040
-345.420	-81.493	0.147	-0.049
-344.406	-62.606	-0.457	-0.191
-343.391	-149.456	-0.253	-0.020
-342.377	-200.000	0.064	0.324
-341.362	19.738	0.192	0.156
-340.348	573.317	0.034	-0.085
-339.333	-200.000	0.007	-0.203
-338.318	155.179	-0.135	0.188
-337.304	66.784	-0.244	0.250
-336.289	125.659	-0.145	0.185
-335.275	800.000	0.079	-0.284
-334.260	-82.026	0.316	-0.104
-333.245	-185.630	-0.105	0.002
-332.231	614.383	0.172	0.435
-331.216	47.915	0.025	0.024
-330.202	24.088	0.186	0.155
-329.187	-200.000	-0.082	-0.387
-328.172	16.251	-0.125	0.099
-327.158	192.387	-0.241	-0.367
-326.143	-139.515	0.282	-0.030
-325.129	-154.501	0.218	0.015
-324.114	-10.761	0.247	-0.164
-323.099	-156.921	0.291	0.018
-322.085	-51.938	0.295	-0.138
-321.070	800.000	0.059	-0.241
-320.056	800.000	0.142	-0.479
-319.041	60.530	-0.015	0.015
-318.026	295.927	-0.048	0.088
-317.012	768.220	-0.074	-0.203
-315.997	135.940	0.111	0.145
-314.983	201.990	0.084	-0.130
-313.968	333.492	0.086	-0.167
-312.953	800.000	0.098	0.285
-311.939	-93.069	-0.338	0.095
-310.924	800.000	0.035	-0.109
-309.910	-200.000	-0.027	-0.132
-308.895	-7.466	-0.227	-0.155
-307.880	-200.000	-0.052	0.244
-306.866	22.028	-0.258	-0.211
-305.851	-81.820	0.288	0.095
-304.837	281.224	-0.028	-0.050
-303.822	-32.617	-0.081	-0.045
-302.807	-19.699	-0.094	-0.059
-301.793	-19.296	-0.286	-0.178
-300.778	800.000	0.071	-0.226
-299.764	165.638	0.127	-0.180
-298.749	800.000	-0.048	0.198
-297.735	-200.000	0.004	-0.093
-296.720	-52.403	0.102	-0.048
-295.705	-166.243	0.137	-0.006
-294.691	11.391	0.193	-0.148
-293.676	2.266	0.214	-0.156
-292.662	-200.000	-0.027	0.316
-291.647	88.794	-0.136	-0.152
-290.632	-74.612	0.268	-0.097
-289.618	-47.846	-0.225	0.109
-288.603	292.823	-0.060	-0.109
-287.589	51.220	-0.039	0.037
-286.574	-14.675	-0.146	0.094
-285.559	-200.000	0.016	0.330
-284.545	-130.881	0.358	-0.048
-283.530	-4.165	0.034	-0.024
-282.516	-81.776	-0.237	-0.078
-281.501	-151.092	0.111	-0.008
-280.486	466.670	-0.075	0.168
-279.472	-102.462	0.202	0.049
-278.457	5.426	0.332	-0.246
-277.443	-24.789	-0.239	-0.143
-276.428	-97.483	-0.205	0.054
-275.413	-37.517	-0.306	-0.164
-274.399	800.000	-0.057	-0.197
-273.384	144.090	-0.112	-0.150
-272.370	-200.000	0.010	-0.317
-271.355	-114.039	0.373	-0.073
-270.340	69.220	0.037	-0.038
-269.326	-78.513	0.315	-0.108
-268.311	173.755	-0.140	0.203
-267.297	8.330	-0.075	0.057
-266.282	170.080	0.172	0.247
-265.267	360.916	-0.012	0.025
-264.253	-49.058	0.078	0.038
-263.238	-200.000	-0.017	-0.143
-262.224	-103.880	-0.368	0.086
-261.209	-183.178	0.183	0.003
-260.195	322.151	-0.088	-0.168
-259.180	138.317	-0.123	0.162
-258.165	-84.922	-0.089	-0.028
-257.151	-131.580	0.155	0.020
-256.136	-200.000	-0.038	0.176
-255.122	625.188	-0.071	-0.180
-254.107	-113.263	-0.060	-0.012
-253.092	-200.000	-0.034	-0.307
-252.078	800.000	0.014	-0.049
-251.063	-54.350	-0.032	0.015
-250.049	95.774	-0.064	0.073
-249.034	-131.152	0.266	-0.036
-248.019	569.892	-0.070	-0.172
-247.005	134.248	0.088	0.115
-245.990	-200.000	0.001	0.027
-244.976	800.000	-0.016	-0.066
-243.961	-29.022	-0.141	0.081
-242.946	-96.916	0.243	-0.064
-241.932	800.000	0.049	-0.195
-240.917	-87.337	-0.033	-0.010
-239.903	140.274	-0.226	0.299
-238.888	-59.258	-0.077	-0.033
-237.873	72.693	-0.271	-0.284
-236.859	295.249	-0.047	0.087
-235.844	-174.653	-0.119	0.003
-234.830	-93.380	0.174	-0.048
-233.815	-200.000	0.030	0.377
-232.800	800.000	0.016	-0.055
-231.786	619.559	0.066	0.167
-230.771	188.794	0.107	0.160
-229.757	13.421	-0.189	-0.147
-228.742	186.756	-0.052	0.078
-227.727	-117.672	0.089	-0.016
-226.713	-151.858	-0.156	-0.011
-225.698	-200.000	0.034	0.302
-224.684	228.830	-0.015	-0.025
-223.669	118.688	0.041	-0.051
-222.655	150.716	-0.182	0.248
-221.640	-131.780	-0.177	-0.023
-220.625	-200.000	0.009	0.096
-219.611	-168.820	0.079	-0.003
-218.596	800.000	-0.113	-0.414
-217.582	-70.176	-0.148	0.057
-216.567	800.000	0.056	0.201
-215.552	-120.238	-0.358	-0.061
-214.538	-200.000	-0.005	0.197
-213.523	-156.662	0.251	0.016
-212.509	69.708	-0.127	-0.131
-211.494	-77.432	0.147	-0.051
-210.479	-17.703	0.322	0.203
-209.465	189.226	0.073	-0.110
-208.450	-93.236	-0.065	-0.018
-207.436	-106.785	-0.045	-0.010
-206.421	119.610	0.172	0.214
-205.406	-89.832	-0.208	0.061
-204.392	304.326	-0.021	-0.038
-203.377	781.664	-0.082	0.226
-202.363	312.545	0.070	0.131
-201.348	-200.000	0.012	0.262
-200.333	800.000	-0.020	-0.061
-199.319	800.000	-0.043	0.128
-198.304	-125.790	-0.183	0.028
-197.290	36.947	-0.030	-0.026
-196.275	394.245	0.088	0.183
-195.260	160.951	-0.052	0.073
-194.246	45.963	-0.086	0.079
-193.231	-200.000	0.007	-0.102
-192.217	53.938	0.271	-0.261
-191.202	-62.247	0.188	0.079
-190.187	47.601	0.335	0.313
-189.173	377.710	0.017	-0.035
-188.158	222.565	-0.240	-0.386
-187.144	-200.000	-0.056	0.377
-186.129	-134.014	0.154	-0.019
-185.114	28.234	-0.110	-0.093
-184.100	-200.000	-0.032	-0.287
-183.085	-200.000	-0.001	-0.021
-182.071	602.595	-0.091	0.227
-181.056	171.139	-0.102	-0.146
-180.042	-80.594	-0.244	0.081
-179.027	-200.000	0.072	0.381
-178.012	76.660	-0.127	0.135
-176.998	252.637	-0.179	-0.305
-175.983	-46.765	-0.106	0.052
-174.969	-45.357	0.055	-0.027
-173.954	-200.000	-0.022	-0.108
-172.939	707.946	0.031	0.083
-171.925	59.306	-0.059	-0.058
-170.910	188.975	0.228	-0.342
-169.896	-200.000	-0.019	-0.225
-168.881	-200.000	-0.015	0.438
-167.866	135.384	-0.115	-0.150
-166.852	-128.739	-0.130	0.018
-165.837	-84.528	-0.091	-0.029
-164.823	-36.619	0.097	-0.052
-163.808	-140.246	-0.196	-0.021
-162.793	-8.554	-0.112	0.075
-161.779	-200.000	0.017	0.125
-160.764	-15.188	-0.150	-0.096
-159.750	-200.000	-0.037	0.263
-158.735	-40.174	0.304	0.158
-157.720	-79.973	0.184	-0.062
-156.706	-98.574	-0.286	0.073
-155.691	277.503	-0.132	0.234
-154.677	-179.991	0.284	0.006
-153.662	-104.632	-0.283	-0.065
-152.647	246.968	0.242	-0.408
-151.633	-102.236	0.342	0.082
-150.618	2.172	-0.387	0.280
-149.604	-35.950	0.206	0.111
-148.589	-42.812	-0.059	0.030
-147.574	9.319	-0.120	-0.091
-146.560	-59.213	-0.249	-0.107
-145.545	-41.711	-0.204	0.105
-144.531	99.584	-0.145	-0.167
-143.516	62.528	-0.305	0.305
-142.502	-133.161	-0.106	-0.013
-141.487	-200.000	0.035	-0.171
-140.472	-200.000	-0.019	-0.101
-139.458	-51.167	0.319	0.150
-138.443	99.847	0.014	-0.017
-137.429	-81.131	-0.419	-0.139
-136.414	-200.000	-0.025	0.157
-135.399	151.177	-0.110	-0.149
-134.385	53.808	0.188	-0.181
-133.370	800.000	-0.091	0.331
-132.356	-200.000	0.072	0.317
-131.341	-164.110	0.362	0.017
-130.326	-113.305	0.238	0.047
-129.312	-200.000	0.040	-0.252
-128.297	-200.000	-0.036	-0.222
-127.283	-4.627	-0.154	-0.106
-126.268	-18.548	-0.075	0.047
-125.253	31.572	-0.212	0.182
-124.239	-200.000	0.008	-0.128
-123.224	-123.294	0.069	0.011
-122.210	7.857	0.164	-0.123
