DTS Sentinel unit serial number:	SN413079Multiplexer serial number:	ORYXHardware model number:	OX4-SRSoftware version number:	ORYX F/W v4.00 Oryx Data Collector v3.7.2.0data status	okinstallation	princeton_trtdifferential loss correction	single-endedforward channel	channel 1reverse channel	N/Adate	2019/09/13time	07:06:36forward acquisition time	60.00reverse acquisition time	0.00gamma	496.2192k internal	0.2335k external	0.2335temperature offset calibration	1.0160default loss term (dB/km)	0.3790temperature slope calibration	1.0000multiplexer offset coefficient	1.0000multiplexer slope coefficient	1.0000fibre end	0.00T internal ref (°C)	26.00T ext. ref 1 (°C)	4.13T ext. ref 2 (°C)	21.25length (m)	temperature (°C)	Stokes	anti-Stokes-747.200	-7.870	-0.104	-0.070
-746.185	411.582	0.115	0.244
-745.171	350.596	-0.089	-0.176
-744.156	-33.471	-0.335	0.186
-743.142	33.310	-0.025	-0.022
-742.127	124.153	0.188	0.238
-741.112	86.295	0.130	0.144
-740.098	800.000	0.041	0.126
-739.083	800.000	-0.089	-0.337
-738.069	518.207	-0.113	-0.266
-737.054	469.498	-0.044	0.098
-736.039	-200.000	-0.002	0.144
-735.025	63.501	-0.049	0.050
-734.010	340.490	0.091	0.179
-732.996	-200.000	0.005	-0.188
-731.981	10.493	0.115	-0.088
-730.966	-200.000	-0.021	-0.281
-729.952	-32.433	0.333	-0.187
-728.937	-83.002	-0.226	0.073
-727.923	216.820	0.104	0.165
-726.908	-90.439	0.222	0.065
-725.894	-181.626	-0.471	0.009
-724.879	-200.000	0.010	0.177
-723.864	552.841	0.039	-0.095
-722.850	255.275	0.123	0.211
-721.835	-49.132	-0.455	-0.218
-720.821	22.961	-0.384	-0.316
-719.806	77.057	-0.173	0.185
-718.791	-168.633	0.272	-0.010
-717.777	151.411	-0.250	-0.341
-716.762	5.297	0.260	0.192
-715.748	800.000	0.036	0.152
-714.733	23.741	-0.182	0.150
-713.718	567.889	-0.094	-0.230
-712.704	800.000	-0.084	0.243
-711.689	24.058	-0.076	0.063
-710.675	-69.624	-0.206	-0.079
-709.660	-105.834	0.232	0.052
-708.645	-13.397	-0.284	0.185
-707.631	-55.048	-0.103	0.047
-706.616	-44.562	0.182	0.091
-705.602	-200.000	0.041	-0.234
-704.587	-32.118	-0.036	-0.020
-703.572	-200.000	-0.003	0.204
-702.558	800.000	0.040	-0.123
-701.543	2.311	-0.210	-0.152
-700.529	-71.629	-0.253	-0.095
-699.514	80.197	0.186	-0.200
-698.499	349.309	-0.095	0.188
-697.485	-186.138	0.277	-0.004
-696.470	-73.140	-0.300	0.110
-695.456	-31.747	-0.176	0.099
-694.441	-114.603	-0.205	-0.039
-693.426	-79.153	0.080	-0.027
-692.412	551.392	-0.141	-0.338
-691.397	26.014	0.131	0.110
-690.383	-23.740	-0.112	-0.068
-689.368	703.353	0.035	-0.093
-688.354	-14.667	-0.306	0.197
-687.339	-105.383	0.092	-0.021
-686.324	-122.998	-0.224	0.036
-685.310	98.463	0.306	0.353
-684.295	292.314	-0.014	0.025
-683.281	179.944	-0.307	-0.451
-682.266	117.526	-0.072	0.089
-681.251	800.000	0.037	0.113
-680.237	-127.831	-0.227	-0.033
-679.222	-118.392	-0.183	0.033
-678.208	320.767	-0.051	0.097
-677.193	251.149	0.150	-0.255
-676.178	343.974	-0.192	-0.377
-675.164	-117.955	0.205	-0.037
-674.149	-6.976	0.219	-0.149
-673.135	-200.000	0.021	0.209
-672.120	-18.278	-0.141	-0.088
-671.105	-200.000	0.055	-0.263
-670.091	-120.348	0.235	-0.040
-669.076	650.470	-0.052	-0.133
-668.062	-84.218	0.279	0.088
-667.047	633.866	-0.045	-0.115
-666.032	-77.203	0.291	0.102
-665.018	164.293	-0.103	-0.146
-664.003	101.623	-0.123	-0.143
-662.989	-111.817	-0.193	-0.039
-661.974	172.902	0.167	-0.241
-660.959	202.802	0.069	-0.107
-659.945	-200.000	-0.046	0.219
-658.930	44.554	-0.184	-0.169
-657.916	-200.000	0.001	-0.294
-656.901	800.000	-0.067	0.235
-655.886	-75.270	0.482	0.172
-654.872	14.034	-0.217	-0.169
-653.857	-200.000	-0.010	-0.240
-652.843	-20.829	0.154	0.095
-651.828	601.614	-0.053	0.133
-650.814	-140.731	-0.204	-0.021
-649.799	516.119	-0.053	-0.124
-648.784	-200.000	0.012	0.250
-647.770	-200.000	0.012	-0.267
-646.755	168.042	0.153	-0.217
-645.741	140.992	0.102	-0.135
-644.726	655.222	-0.063	-0.163
-643.711	-62.916	-0.116	-0.048
-642.697	-193.930	-0.059	-0.000
-641.682	-53.211	-0.201	0.092
-640.668	-106.519	-0.354	0.079
-639.653	-155.575	0.318	-0.020
-638.638	59.369	0.148	-0.146
-637.624	-69.029	-0.190	0.073
-636.609	70.322	0.199	0.206
-635.595	52.696	0.331	-0.317
-634.580	-109.798	0.234	0.049
-633.565	121.295	0.158	-0.197
-632.551	5.264	-0.087	-0.064
-631.536	-152.545	-0.384	0.027
-630.522	-200.000	-0.036	-0.438
-629.507	40.930	-0.185	0.167
-628.492	165.083	0.012	0.016
-627.478	-150.273	0.244	0.019
-626.463	-1.838	-0.097	0.068
-625.449	-200.000	0.014	-0.189
-624.434	96.810	-0.124	-0.142
-623.419	-28.857	-0.087	0.050
-622.405	-200.000	0.032	-0.231
-621.390	657.373	0.036	0.094
-620.376	-192.757	-0.401	0.004
-619.361	-88.261	-0.027	-0.008
-618.346	382.992	-0.110	-0.227
-617.332	-69.660	-0.594	0.227
-616.317	123.551	0.151	-0.189
-615.303	-200.000	-0.009	-0.066
-614.288	-56.846	0.271	-0.120
-613.273	800.000	-0.019	-0.073
-612.259	-74.837	-0.392	-0.141
-611.244	-19.117	0.252	-0.156
-610.230	13.791	0.206	0.160
-609.215	-109.259	0.191	-0.041
-608.201	-127.315	-0.331	-0.048
-607.186	593.044	0.025	0.062
-606.171	-46.180	-0.277	-0.136
-605.157	-114.608	0.430	-0.082
-604.142	10.234	-0.182	0.138
-603.128	174.595	0.128	0.185
-602.113	195.595	-0.170	-0.258
-601.098	-89.131	0.161	0.048
-600.084	45.359	-0.200	0.184
-599.069	-200.000	-0.005	0.039
-598.055	299.030	0.088	0.162
-597.040	-200.000	-0.016	0.168
-596.025	-96.902	0.275	0.072
-595.011	-41.154	-0.079	-0.041
-593.996	-54.039	-0.277	0.126
-592.982	-18.652	0.292	-0.182
-591.967	-133.492	-0.189	0.024
-590.952	-151.124	-0.166	0.012
-589.938	-67.124	-0.193	-0.076
-588.923	-88.308	-0.394	0.118
-587.909	-36.942	0.029	0.015
-586.894	-115.015	0.094	0.018
-585.879	-155.212	0.100	0.006
-584.865	494.686	0.101	-0.231
-583.850	319.676	0.107	0.203
-582.836	-38.205	-0.276	0.146
-581.821	-200.000	-0.015	-0.249
-580.806	48.231	-0.199	-0.185
-579.792	206.183	-0.186	-0.290
-578.777	-186.411	-0.207	0.003
-577.763	-200.000	0.024	-0.214
-576.748	-200.000	0.015	0.190
-575.733	-72.099	-0.224	0.083
-574.719	252.806	0.194	-0.331
-573.704	205.243	0.168	-0.261
-572.690	417.694	0.084	0.180
-571.675	91.343	0.385	-0.431
-570.661	800.000	-0.069	0.257
-569.646	800.000	0.074	-0.289
-568.631	215.864	-0.178	-0.281
-567.617	139.844	0.245	0.322
-566.602	-99.985	0.160	-0.040
-565.588	286.128	0.177	0.319
-564.573	-78.886	0.379	0.129
-563.558	-200.000	0.004	-0.237
-562.544	192.509	0.097	-0.146
-561.529	800.000	-0.078	-0.291
-560.515	800.000	-0.072	-0.218
-559.500	26.301	0.254	-0.212
-558.485	-146.481	0.249	-0.022
-557.471	-62.066	-0.207	-0.086
-556.456	-200.000	0.016	-0.144
-555.442	-104.052	-0.148	-0.034
-554.427	324.503	0.142	-0.270
-553.412	-200.000	0.023	-0.221
-552.398	-56.536	-0.322	0.142
-551.383	97.710	-0.232	0.266
-550.369	-137.336	-0.136	0.015
-549.354	800.000	-0.131	0.467
-548.339	-55.329	-0.100	0.045
-547.325	800.000	-0.054	0.172
-546.310	-200.000	0.004	0.249
-545.296	99.693	0.136	-0.158
-544.281	-90.247	0.191	0.055
-543.266	-158.920	-0.177	0.010
-542.252	-173.297	-0.406	0.012
-541.237	-179.260	-0.145	0.003
-540.223	195.290	0.029	-0.043
-539.208	-141.759	-0.009	-0.001
-538.193	38.599	-0.355	0.315
-537.179	-147.529	-0.267	-0.022
-536.164	-200.000	-0.007	-0.312
-535.150	-37.051	-0.291	0.155
-534.135	92.089	-0.102	-0.114
-533.121	-154.342	-0.193	-0.013
-532.106	18.319	-0.013	-0.010
-531.091	-90.475	0.296	-0.085
-530.077	-105.830	-0.321	0.072
-529.062	587.676	0.099	-0.244
-528.048	-200.000	-0.019	-0.292
-527.033	800.000	-0.038	0.130
-526.018	-57.774	0.258	-0.113
-525.004	152.494	0.174	-0.237
-523.989	-155.364	0.090	-0.006
-522.975	-62.705	-0.230	0.095
-521.960	800.000	-0.156	-0.471
-520.945	268.581	0.205	0.359
-519.931	207.055	-0.050	0.078
-518.916	-6.765	-0.225	0.152
-517.902	-91.830	0.180	-0.051
-516.887	-200.000	-0.026	-0.395
-515.872	232.672	0.266	-0.434
-514.858	68.227	0.167	0.170
-513.843	157.688	-0.294	0.405
-512.829	-115.433	-0.181	-0.034
-511.814	143.985	0.018	-0.024
-510.799	800.000	0.130	0.426
-509.785	-170.014	0.264	0.009
-508.770	-30.941	-0.158	-0.089
-507.756	127.927	0.134	-0.170
-506.741	800.000	0.068	-0.236
-505.726	-122.786	-0.264	0.042
-504.712	-134.337	0.139	-0.017
-503.697	163.612	-0.100	0.140
-502.683	-172.078	-0.195	-0.006
-501.668	269.527	-0.128	0.224
-500.653	120.652	0.090	0.112
-499.639	-104.823	-0.088	0.020
-498.624	-99.483	0.331	0.083
-497.610	-97.477	-0.218	0.056
-496.595	-26.731	-0.099	-0.058
-495.581	719.064	-0.023	-0.061
-494.566	800.000	0.048	0.175
-493.551	0.874	0.034	0.024
-492.537	-65.389	0.356	0.143
-491.522	20.062	-0.325	0.261
-490.508	131.795	-0.077	-0.098
-489.493	800.000	-0.031	-0.089
-488.478	285.435	0.064	-0.115
-487.464	-45.451	0.153	0.075
-486.449	800.000	0.041	0.177
-485.435	98.842	0.059	0.067
-484.420	-110.195	-0.137	0.028
-483.405	114.008	0.229	0.277
-482.391	-52.855	-0.100	-0.046
-481.376	-147.030	0.157	0.013
-480.362	-81.546	-0.087	-0.028
-479.347	48.755	-0.184	-0.171
-478.332	123.949	-0.184	-0.230
-477.318	-94.394	0.130	0.035
-476.303	-143.947	-0.091	0.009
-475.289	379.323	-0.066	-0.135
-474.274	800.000	0.089	-0.262
-473.259	-135.123	0.256	-0.031
-472.245	92.987	0.205	0.230
-471.230	-197.199	0.164	-0.001
-470.216	14.553	0.296	0.229
-469.201	112.570	0.049	-0.058
-468.186	97.432	-0.272	-0.311
-467.172	-102.038	0.166	-0.040
-466.157	-87.526	0.073	0.022
-465.143	-94.034	-0.288	0.079
-464.128	800.000	-0.051	0.208
-463.113	-99.630	-0.212	-0.053
-462.099	-200.000	0.016	-0.279
-461.084	37.291	0.199	0.175
-460.070	356.550	0.099	0.195
-459.055	267.163	-0.113	0.196
-458.040	-200.000	-0.019	0.197
-457.026	-200.000	0.028	-0.135
-456.011	-105.563	0.196	-0.044
-454.997	7.541	-0.044	-0.033
-453.982	-94.693	-0.221	0.060
-452.968	572.548	-0.052	0.127
-451.953	44.893	-0.150	0.137
-450.938	-200.000	0.024	-0.107
-449.924	214.953	0.154	-0.243
-448.909	800.000	-0.075	-0.260
-447.895	-137.616	0.100	0.011
-446.880	-200.000	0.004	-0.104
-445.865	588.092	-0.120	0.293
-444.851	-200.000	0.029	0.136
-443.836	-95.360	-0.227	0.061
-442.822	300.790	-0.150	0.276
-441.807	-200.000	0.028	-0.197
-440.792	-164.826	0.040	0.002
-439.778	-93.804	-0.164	0.045
-438.763	-19.713	-0.226	0.139
-437.749	217.723	0.114	-0.180
-436.734	288.576	-0.136	0.244
-435.719	-116.122	-0.084	0.016
-434.705	169.580	0.096	0.136
-433.690	44.925	-0.132	-0.121
-432.676	178.339	-0.157	0.227
-431.661	-200.000	-0.009	-0.156
-430.646	87.200	0.071	-0.078
-429.632	800.000	0.057	0.222
-428.617	612.713	-0.080	0.198
-427.603	-49.485	0.301	-0.142
-426.588	215.461	-0.032	-0.051
-425.573	3.779	0.136	-0.098
-424.559	-21.881	-0.159	-0.096
-423.544	-111.229	-0.072	0.015
-422.530	-156.143	0.237	0.015
-421.515	-110.276	-0.229	-0.047
-420.500	-93.818	0.169	-0.046
-419.486	-79.239	-0.344	-0.116
-418.471	-57.475	0.164	0.071
-417.457	-200.000	-0.038	0.215
-416.442	-62.093	-0.181	-0.075
-415.428	47.824	0.243	-0.225
-414.413	202.034	0.262	-0.401
-413.398	-200.000	-0.005	0.454
-412.384	76.317	0.043	-0.045
-411.369	-81.412	0.151	-0.049
-410.355	666.910	-0.119	0.306
-409.340	800.000	0.112	0.317
-408.325	-143.549	0.137	0.013
-407.311	45.699	0.062	0.057
-406.296	188.402	0.196	-0.291
-405.282	299.697	0.115	0.211
-404.267	-71.670	-0.239	0.089
-403.252	66.356	0.084	0.085
-402.238	66.360	0.136	-0.137
-401.223	34.087	-0.286	-0.247
-400.209	83.859	0.371	0.402
-399.194	429.651	-0.119	-0.254
-398.179	-90.801	0.155	-0.044
-397.165	-200.000	0.029	-0.166
-396.150	800.000	0.072	0.262
-395.136	215.357	-0.023	0.036
-394.121	300.785	0.103	0.189
-393.106	-116.178	-0.225	-0.041
-392.092	-151.840	-0.323	0.023
-391.077	428.298	-0.034	-0.072
-390.063	108.385	-0.190	-0.225
-389.048	224.460	0.023	0.037
-388.033	-200.000	-0.010	0.079
-387.019	-200.000	-0.049	0.277
-386.004	-6.587	-0.181	0.122
-384.990	285.848	-0.121	-0.216
-383.975	466.751	0.135	0.300
-382.960	38.388	-0.116	0.102
-381.946	428.821	0.112	-0.240
-380.931	-18.883	-0.120	0.074
-379.917	-94.751	0.084	0.023
-378.902	261.269	0.113	-0.194
-377.888	-200.000	-0.008	0.186
-376.873	-137.990	0.334	0.037
-375.858	111.456	0.120	0.144
-374.844	-70.281	0.354	-0.133
-373.829	-200.000	0.009	-0.212
-372.815	-200.000	-0.027	0.301
-371.800	-200.000	0.005	0.190
-370.785	117.384	0.173	0.210
-369.771	40.449	0.126	0.113
-368.756	-200.000	-0.010	-0.143
-367.742	30.555	-0.089	-0.076
-366.727	24.567	-0.156	-0.128
-365.712	800.000	0.046	-0.169
-364.698	800.000	-0.063	0.174
-363.683	-9.616	-0.114	0.075
-362.669	-141.134	-0.140	0.014
-361.654	-200.000	-0.034	-0.166
-360.639	96.446	-0.171	-0.194
-359.625	-200.000	-0.033	-0.279
-358.610	-200.000	0.010	0.106
-357.596	-63.466	-0.178	0.072
-356.581	-100.999	-0.070	0.017
-355.566	12.131	-0.296	-0.225
-354.552	800.000	0.061	0.250
-353.537	46.727	0.252	-0.231
-352.523	-93.904	-0.256	0.070
-351.508	-19.933	0.095	-0.058
-350.493	800.000	-0.066	0.280
-349.479	96.287	0.096	0.108
-348.464	-43.775	0.213	0.106
-347.450	-172.383	0.231	-0.007
-346.435	-200.000	-0.046	-0.324
-345.420	398.774	0.008	-0.017
-344.406	-200.000	0.007	0.070
-343.391	210.268	-0.171	-0.265
-342.377	-151.754	0.382	-0.028
-341.362	-200.000	0.010	0.119
-340.348	585.119	0.052	-0.126
-339.333	-144.436	0.178	0.016
-338.318	-54.853	0.347	-0.155
-337.304	111.888	-0.093	-0.111
-336.289	4.559	0.130	-0.094
-335.275	115.565	0.027	0.033
-334.260	800.000	-0.037	0.105
-333.245	170.714	-0.112	0.158
-332.231	40.025	-0.103	0.092
-331.216	-200.000	0.017	-0.431
-330.202	143.645	0.125	0.164
-329.187	93.357	-0.164	0.183
-328.172	-51.078	-0.263	0.122
-327.158	-200.000	-0.001	0.189
-326.143	-133.521	0.226	0.028
-325.129	-95.197	0.126	0.034
-324.114	135.125	-0.144	0.185
-323.099	-73.157	-0.109	-0.039
-322.085	158.368	-0.190	0.261
-321.070	0.855	0.271	0.191
-320.056	124.304	-0.038	0.047
-319.041	-16.564	-0.354	0.222
-318.026	-136.719	0.320	-0.036
-317.012	49.770	-0.199	0.185
-315.997	-200.000	0.030	-0.179
-314.983	-138.306	0.193	-0.021
-313.968	16.542	-0.076	-0.059
-312.953	-131.480	0.245	0.032
-311.939	-147.226	-0.137	0.012
-310.924	-155.053	0.339	-0.022
-309.910	-88.295	0.156	0.046
-308.895	-108.863	0.248	-0.052
-307.880	800.000	-0.102	0.365
-306.866	77.994	-0.270	0.284
-305.851	-200.000	-0.011	0.139
-304.837	-200.000	0.063	0.274
-303.822	55.554	-0.110	0.106
-302.807	-143.329	0.248	0.023
-301.793	-44.315	0.182	-0.090
-300.778	-95.020	-0.189	0.050
-299.764	-200.000	-0.036	0.176
-298.749	-109.167	0.065	0.014
-297.735	-154.902	0.199	-0.013
-296.720	-146.069	0.131	-0.011
-295.705	-45.549	0.398	-0.194
-294.691	800.000	0.086	-0.281
-293.676	-146.097	0.141	0.012
-292.662	-200.000	0.020	-0.129
-291.647	95.482	-0.057	0.064
-290.632	98.357	-0.129	-0.147
-289.618	52.558	-0.188	-0.177
-288.603	45.506	-0.235	-0.214
-287.589	-200.000	-0.004	0.073
-286.574	-200.000	-0.023	0.226
-285.559	-200.000	-0.007	-0.390
-284.545	12.820	-0.190	-0.145
-283.530	800.000	-0.027	-0.091
-282.516	179.342	0.125	-0.180
-281.501	-74.394	0.280	-0.100
-280.486	36.156	-0.151	-0.131
-279.472	176.987	0.075	0.108
-278.457	260.796	-0.118	-0.201
-277.443	800.000	-0.037	-0.142
-276.428	44.319	-0.082	0.075
-275.413	21.323	-0.052	-0.041
-274.399	800.000	0.030	0.095
-273.384	-60.104	0.266	-0.112
-272.370	31.216	0.263	0.223
-271.355	-200.000	-0.203	0.000
-270.340	419.152	-0.042	-0.088
-269.326	-16.173	-0.156	0.098
-268.311	800.000	0.084	0.239
-267.297	85.103	-0.127	0.137
-266.282	56.021	0.417	0.399
-265.267	270.438	0.087	0.151
-264.253	53.287	-0.031	-0.029
-263.238	71.513	0.073	-0.075
-262.224	49.742	-0.085	0.079
-261.209	163.243	0.067	-0.093
-260.195	372.574	-0.109	0.219
-259.180	26.407	0.270	0.222
-258.165	-50.383	0.074	0.035
-257.151	-47.109	-0.058	0.028
-256.136	225.076	0.229	-0.365
-255.122	285.862	-0.065	0.116
-254.107	177.732	-0.227	0.327
-253.092	-43.516	-0.148	0.074
-252.078	-200.000	-0.013	0.158
-251.063	800.000	-0.093	0.286
-250.049	-200.000	0.043	0.232
-249.034	-28.400	0.184	0.105
-248.019	-200.000	0.014	-0.260
-247.005	-20.707	0.082	-0.049
-245.990	-64.080	-0.014	-0.006
-244.976	118.660	-0.111	-0.135
-243.961	788.498	-0.020	-0.054
-242.946	-91.120	0.114	0.032
-241.932	-133.879	0.024	0.003
-240.917	-92.835	-0.217	0.060
-239.903	-140.350	0.183	-0.019
-238.888	59.647	0.330	-0.321
-237.873	-83.824	0.042	-0.013
-236.859	-200.000	-0.025	0.176
-235.844	800.000	0.092	-0.312
-234.830	-31.421	0.063	0.035
-233.815	199.063	-0.109	-0.164
-232.800	50.624	0.033	-0.031
-231.786	-200.000	0.078	-0.392
-230.771	-34.888	-0.098	-0.052
-229.757	-156.918	-0.172	-0.010
-228.742	-88.840	0.331	0.097
-227.727	-200.000	0.033	-0.270
-226.713	-194.016	0.243	-0.002
-225.698	396.923	0.097	-0.199
-224.684	-83.626	-0.188	-0.059
-223.669	26.578	0.187	-0.154
-222.655	256.719	-0.071	0.120
-221.640	219.142	0.158	0.249
-220.625	800.000	0.064	-0.253
-219.611	800.000	-0.013	-0.038
-218.596	96.415	-0.157	-0.176
-217.582	388.552	-0.073	0.148
-216.567	400.033	-0.169	0.349
-215.552	-144.886	-0.119	-0.011
-214.538	495.485	0.177	0.400
-213.523	-194.518	0.284	-0.002
-212.509	377.571	-0.050	-0.100
-211.494	-200.000	-0.003	0.277
-210.479	80.094	0.095	0.100
-209.465	-200.000	0.000	0.115
-208.450	-89.331	-0.108	0.031
-207.436	-200.000	0.016	0.371
-206.421	3.407	-0.225	-0.161
-205.406	405.134	-0.155	-0.322
-204.392	-200.000	0.022	-0.277
-203.377	-39.646	-0.099	-0.051
-202.363	-109.820	0.049	0.010
-201.348	-183.627	-0.088	0.001
-200.333	-65.708	0.186	-0.073
-199.319	-13.834	-0.318	0.202
-198.304	800.000	-0.092	0.285
-197.290	154.116	-0.193	0.260
-196.275	-200.000	-0.057	-0.318
-195.260	44.653	0.101	0.092
-194.246	512.353	-0.144	-0.331
-193.231	166.243	0.168	0.234
-192.217	14.031	-0.113	-0.086
-191.202	13.635	-0.107	0.082
-190.187	119.111	-0.217	0.264
-189.173	-70.429	0.218	0.081
-188.158	-189.225	0.289	0.003
-187.144	-85.583	0.101	-0.031
-186.129	584.549	0.115	-0.277
-185.114	-11.072	0.238	0.154
-184.100	98.387	-0.047	0.054
-183.085	65.800	-0.167	-0.167
-182.071	44.311	-0.166	0.150
-181.056	171.971	-0.160	-0.226
-180.042	21.181	0.192	-0.154
-179.027	424.617	-0.095	-0.201
-178.012	769.637	-0.144	0.385
-176.998	468.029	-0.096	0.212
-175.983	800.000	0.044	0.175
-174.969	69.074	0.205	-0.207
-173.954	-23.120	-0.178	0.105
-172.939	35.409	-0.249	0.214
-171.925	21.102	0.284	-0.226
-170.910	328.955	-0.118	-0.222
-169.896	-92.582	0.246	0.068
-168.881	163.085	0.085	-0.117
-167.866	800.000	0.059	-0.189
-166.852	90.946	-0.237	-0.261
-165.837	-152.974	0.203	0.014
-164.823	24.657	0.170	0.138
-163.808	-154.226	0.131	0.009
-162.793	291.736	0.117	0.210
-161.779	253.303	-0.063	-0.106
-160.764	-200.000	-0.460	0.002
-159.750	800.000	0.076	0.230
-158.735	-178.181	-0.154	-0.004
-157.720	100.302	-0.080	0.092
-156.706	76.220	-0.085	-0.088
-155.691	-200.000	0.020	0.323
-154.677	67.386	0.039	-0.039
-153.662	800.000	0.100	-0.286
-152.647	-170.939	0.261	-0.009
-151.633	-44.948	-0.047	0.023
-150.618	28.212	0.154	0.127
-149.604	722.221	0.136	0.356
-148.589	-69.636	-0.180	-0.068
-147.574	-200.000	-0.024	-0.132
-146.560	-98.349	0.569	0.143
-145.545	800.000	0.092	0.367
-144.531	47.761	-0.179	-0.164
-143.516	56.773	-0.266	-0.255
-142.502	64.872	0.211	-0.209
-141.487	465.600	0.065	-0.143
-140.472	155.603	0.177	-0.239
-139.458	552.144	0.033	-0.079
-138.443	-200.000	0.024	-0.246
-137.429	800.000	0.044	0.160
-136.414	247.679	-0.079	-0.132
-135.399	379.415	0.086	0.174
-134.385	-90.688	0.172	-0.049
-133.370	-155.570	-0.114	-0.007
-132.356	-200.000	0.004	-0.451
-131.341	430.822	-0.170	-0.361
-130.326	167.332	0.045	0.062
-129.312	265.798	-0.215	0.368
-128.297	-42.438	-0.420	0.210
-127.283	-147.115	-0.150	0.013
-126.268	599.774	0.078	0.189
-125.253	-200.000	-0.022	0.108
-124.239	77.357	-0.178	-0.186
-123.224	-85.785	-0.203	0.062
-122.210	-95.096	0.492	-0.130
-121.195	128.022	0.067	0.084
