DTS Sentinel unit serial number:	SN413079Multiplexer serial number:	ORYXHardware model number:	OX4-SRSoftware version number:	ORYX F/W v4.00 Oryx Data Collector v3.7.2.0data status	okinstallation	princeton_trtdifferential loss correction	single-endedforward channel	channel 1reverse channel	N/Adate	2019/09/16time	17:06:35forward acquisition time	60.00reverse acquisition time	0.00gamma	496.2192k internal	0.2296k external	0.2296temperature offset calibration	0.9967default loss term (dB/km)	0.3790temperature slope calibration	1.0000multiplexer offset coefficient	1.0000multiplexer slope coefficient	1.0000fibre end	0.00T internal ref (°C)	39.12T ext. ref 1 (°C)	15.32T ext. ref 2 (°C)	33.31length (m)	temperature (°C)	Stokes	anti-Stokes-747.200	416.413	0.161	0.352
-746.185	-200.000	0.001	0.092
-745.171	-167.610	0.251	-0.010
-744.156	800.000	0.130	0.368
-743.142	305.589	-0.098	-0.186
-742.127	261.081	-0.081	0.143
-741.112	-129.138	-0.185	-0.026
-740.098	-45.061	-0.172	-0.087
-739.083	-78.270	-0.298	-0.105
-738.069	800.000	-0.139	0.453
-737.054	-91.349	0.470	0.137
-736.039	79.173	-0.102	0.111
-735.025	-119.053	0.194	0.035
-734.010	-63.916	-0.196	-0.082
-732.996	215.568	-0.048	-0.078
-731.981	-126.093	-0.186	0.028
-730.966	-123.695	-0.243	0.039
-729.952	386.903	-0.117	0.247
-728.937	-7.833	0.047	-0.033
-727.923	-16.908	-0.221	-0.143
-726.908	-200.000	0.034	-0.482
-725.894	-149.257	-0.275	-0.022
-724.879	29.217	-0.238	0.206
-723.864	-0.698	0.231	-0.167
-722.850	-200.000	-0.064	0.313
-721.835	-129.309	-0.262	0.037
-720.821	-185.053	0.286	-0.005
-719.806	-89.622	0.333	-0.100
-718.791	16.489	-0.144	-0.116
-717.777	330.882	0.131	0.257
-716.762	707.037	0.050	0.134
-715.748	-200.000	0.052	-0.349
-714.733	800.000	-0.101	0.327
-713.718	-200.000	0.082	-0.493
-712.704	-200.000	-0.035	-0.243
-711.689	-28.438	0.110	-0.065
-710.675	344.813	0.097	-0.194
-709.660	-22.422	0.097	0.060
-708.645	62.214	-0.115	0.117
-707.631	-29.639	-0.155	-0.090
-706.616	6.696	0.215	-0.163
-705.602	-144.486	-0.096	-0.009
-704.587	800.000	0.098	-0.354
-703.572	-11.469	-0.316	-0.212
-702.558	-132.981	0.318	0.041
-701.543	-200.000	-0.006	0.141
-700.529	800.000	-0.051	-0.186
-699.514	135.314	-0.210	0.279
-698.499	-162.635	-0.285	0.014
-697.485	54.927	0.174	-0.172
-696.470	-133.045	-0.125	-0.016
-695.456	648.380	-0.081	-0.211
-694.441	26.793	-0.171	-0.146
-693.426	-107.153	0.190	-0.043
-692.412	-33.556	-0.066	0.037
-691.397	-12.797	-0.137	0.091
-690.383	106.642	0.116	-0.140
-689.368	38.192	-0.284	-0.258
-688.354	-95.454	-0.262	-0.072
-687.339	-86.104	-0.148	-0.046
-686.324	249.423	-0.100	-0.173
-685.310	-142.879	0.282	-0.028
-684.295	52.188	-0.169	0.164
-683.281	160.491	-0.090	0.128
-682.266	800.000	0.005	0.018
-681.251	-77.952	0.099	-0.035
-680.237	635.868	0.064	0.164
-679.222	51.182	0.388	0.376
-678.208	-8.811	-0.081	-0.055
-677.193	-107.328	0.409	-0.092
-676.178	8.711	0.162	0.124
-675.164	800.000	0.090	0.286
-674.149	798.298	0.114	0.319
-673.135	-64.099	0.368	-0.153
-672.120	-158.969	-0.331	-0.019
-671.105	-200.000	-0.078	0.388
-670.091	531.653	-0.118	-0.283
-669.076	-65.352	-0.193	0.079
-668.062	-200.000	0.022	-0.132
-667.047	89.990	-0.066	0.076
-666.032	-43.751	0.047	0.024
-665.018	-132.716	0.249	0.032
-664.003	137.964	0.123	-0.164
-662.989	-103.093	-0.150	-0.036
-661.974	-200.000	0.012	0.220
-660.959	-200.000	-0.028	-0.159
-659.945	13.332	0.070	0.056
-658.930	227.520	0.131	-0.217
-657.916	-29.565	0.116	0.068
-656.901	-137.228	-0.554	-0.064
-655.886	-9.096	-0.069	-0.047
-654.872	800.000	0.056	0.206
-653.857	-200.000	0.004	-0.230
-652.843	74.888	-0.175	-0.188
-651.828	41.189	-0.106	-0.098
-650.814	-99.919	-0.579	-0.147
-649.799	196.476	-0.107	0.166
-648.784	-105.325	0.212	-0.049
-647.770	-41.252	-0.179	0.094
-646.755	-62.426	-0.077	-0.033
-645.741	-85.919	-0.053	-0.017
-644.726	81.595	-0.145	-0.160
-643.711	-200.000	-0.002	-0.315
-642.697	800.000	-0.096	0.283
-641.682	-133.590	0.156	-0.020
-640.668	800.000	-0.152	0.496
-639.653	-175.496	0.289	-0.008
-638.638	800.000	-0.077	-0.276
-637.624	476.942	0.151	0.348
-636.609	77.653	-0.172	0.186
-635.595	477.002	-0.065	0.149
-634.580	-79.296	0.246	0.085
-633.565	-200.000	0.007	-0.259
-632.551	686.669	0.031	0.082
-631.536	88.678	-0.048	-0.055
-630.522	-52.520	0.136	-0.064
-629.507	-138.514	-0.243	0.027
-628.492	-149.655	-0.226	0.018
-627.478	427.371	-0.205	0.450
-626.463	13.892	-0.033	0.026
-625.449	190.438	0.065	0.099
-624.434	-200.000	0.006	-0.257
-623.419	-132.209	0.115	0.015
-622.405	-91.095	-0.347	0.101
-621.390	-200.000	0.014	-0.152
-620.376	-200.000	0.016	-0.077
-619.361	-49.721	-0.543	0.262
-618.346	-200.000	0.002	0.025
-617.332	-31.995	0.117	-0.066
-616.317	17.337	0.078	-0.063
-615.303	-92.964	0.246	-0.070
-614.288	121.589	-0.248	0.314
-613.273	68.363	-0.100	0.104
-612.259	150.123	0.076	-0.105
-611.244	136.321	-0.143	-0.189
-610.230	-23.987	-0.102	0.062
-609.215	143.358	-0.151	-0.204
-608.201	-42.263	0.165	0.086
-607.186	279.210	0.119	0.216
-606.171	-134.527	-0.345	0.043
-605.157	544.243	-0.111	0.268
-604.142	317.114	0.058	0.112
-603.128	-70.748	0.138	-0.053
-602.113	-33.139	-0.224	0.126
-601.098	502.713	0.120	-0.282
-600.084	-131.419	0.215	0.029
-599.069	64.607	0.135	0.138
-598.055	800.000	0.040	0.151
-597.040	-111.376	-0.225	0.047
-596.025	-90.463	-0.130	0.038
-595.011	-138.097	0.190	-0.022
-593.996	44.030	-0.300	0.280
-592.982	-184.577	-0.372	0.006
-591.967	-96.973	-0.295	-0.078
-590.952	266.196	-0.092	0.164
-589.938	-169.893	0.061	0.002
-588.923	-58.263	0.426	-0.188
-587.909	-200.000	0.000	-0.151
-586.894	-200.000	-0.027	0.118
-585.879	800.000	-0.131	0.366
-584.865	21.725	0.239	0.198
-583.850	124.974	-0.051	0.065
-582.836	62.895	0.339	-0.344
-581.821	-45.478	0.195	-0.098
-580.806	-200.000	-0.085	0.389
-579.792	-13.407	-0.583	0.384
-578.777	-65.795	0.116	0.047
-577.763	-75.168	-0.174	-0.063
-576.748	800.000	0.090	0.273
-575.733	13.342	-0.067	-0.053
-574.719	38.670	-0.206	0.187
-573.704	800.000	-0.076	0.296
-572.690	800.000	-0.021	-0.090
-571.675	-91.301	0.258	0.075
-570.661	-200.000	0.009	0.101
-569.646	-41.592	-0.076	-0.040
-568.631	24.491	0.070	0.059
-567.617	800.000	0.057	0.175
-566.602	-200.000	-0.018	-0.324
-565.588	-49.421	-0.238	-0.115
-564.573	14.851	-0.067	-0.053
-563.558	113.667	-0.095	-0.117
-562.544	-104.734	0.044	-0.010
-561.529	-100.175	0.163	0.041
-560.515	37.369	0.028	-0.025
-559.500	588.513	-0.150	-0.375
-558.485	-24.563	0.227	-0.137
-557.471	-43.489	-0.210	0.108
-556.456	-200.000	0.021	0.412
-555.442	-200.000	-0.001	0.137
-554.427	83.749	0.095	-0.105
-553.412	59.856	-0.114	-0.114
-552.398	161.026	-0.174	-0.247
-551.383	-52.148	-0.310	-0.146
-550.369	-128.096	-0.205	0.030
-549.354	-200.000	-0.017	0.231
-548.339	398.097	-0.046	0.098
-547.325	-152.273	-0.133	0.010
-546.310	40.333	-0.175	0.159
-545.296	720.475	0.031	-0.084
-544.281	467.288	0.011	0.024
-543.266	335.567	-0.109	-0.214
-542.252	126.370	-0.081	-0.104
-541.237	26.260	-0.075	-0.063
-540.223	35.626	-0.283	0.252
-539.208	-37.594	-0.102	-0.055
-538.193	38.690	-0.151	-0.137
-537.179	566.739	0.197	0.483
-536.164	-99.290	-0.302	0.077
-535.150	-200.000	0.011	0.142
-534.135	-200.000	0.019	0.192
-533.121	-57.236	0.132	-0.059
-532.106	-1.458	0.164	0.117
-531.091	-80.365	-0.226	0.076
-530.077	-69.292	-0.209	0.081
-529.062	-154.027	0.450	0.031
-528.048	-110.735	0.348	-0.073
-527.033	-45.993	-0.058	0.029
-526.018	166.050	0.223	-0.319
-525.004	-19.564	0.081	0.051
-523.989	504.868	0.096	0.225
-522.975	-200.000	-0.035	-0.260
-521.960	-43.716	0.013	-0.007
-520.945	2.990	0.122	-0.090
-519.931	-92.515	-0.207	0.059
-518.916	-84.183	0.238	0.076
-517.902	30.276	-0.084	-0.072
-516.887	-38.596	-0.273	0.146
-515.872	800.000	0.126	-0.434
-514.858	165.087	0.181	-0.259
-513.843	329.454	0.112	0.219
-512.829	112.774	0.050	0.061
-511.814	-94.106	-0.341	-0.095
-510.799	-47.057	0.187	-0.093
-509.785	66.505	-0.075	-0.077
-508.770	-188.426	0.142	-0.002
-507.756	125.610	0.100	-0.128
-506.741	-200.000	-0.002	0.030
-505.726	112.347	-0.064	-0.078
-504.712	-200.000	-0.015	-0.098
-503.697	-58.925	0.220	-0.096
-502.683	-68.050	-0.179	-0.071
-501.668	59.280	-0.247	-0.246
-500.653	-113.763	0.299	0.059
-499.639	-44.127	-0.223	0.113
-498.624	-127.581	-0.160	-0.023
-497.610	800.000	-0.116	0.443
-496.595	104.003	0.113	0.135
-495.581	-121.260	-0.028	0.005
-494.566	126.148	-0.091	-0.116
-493.551	40.081	-0.146	0.133
-492.537	-124.875	0.246	-0.038
-491.522	-29.663	0.162	0.094
-490.508	745.730	-0.082	-0.224
-489.493	-123.831	0.189	-0.030
-488.478	-128.553	-0.183	-0.026
-487.464	-96.305	-0.144	0.038
-486.449	176.236	-0.354	-0.520
-485.435	303.614	0.104	-0.196
-484.420	-200.000	-0.007	0.268
-483.405	800.000	0.089	0.265
-482.391	-141.836	-0.205	-0.021
-481.376	798.285	-0.037	0.102
-480.362	-53.666	0.217	0.100
-479.347	-27.081	0.067	0.040
-478.332	279.319	0.160	-0.289
-477.318	-59.490	-0.123	0.053
-476.303	-134.773	-0.357	-0.044
-475.289	4.267	-0.039	0.029
-474.274	-32.738	0.173	0.098
-473.259	116.137	0.051	0.063
-472.245	800.000	-0.036	-0.102
-471.230	-172.805	-0.052	0.002
-470.216	28.601	-0.014	-0.012
-469.201	-0.694	-0.158	-0.114
-468.186	-85.317	0.060	-0.019
-467.172	202.535	0.163	-0.255
-466.157	248.621	-0.221	-0.378
-465.143	382.069	0.076	0.158
-464.128	73.133	-0.100	-0.106
-463.113	20.661	0.303	0.248
-462.099	-86.413	-0.166	0.052
-461.084	-172.417	0.397	-0.013
-460.070	-51.135	0.125	0.059
-459.055	447.975	-0.063	-0.140
-458.040	-55.299	0.046	-0.021
-457.026	-34.070	-0.146	-0.081
-456.011	-66.315	0.431	-0.173
-454.997	-114.532	-0.311	0.060
-453.982	-153.080	-0.322	-0.023
-452.968	145.835	-0.106	0.144
-451.953	-28.595	-0.188	0.110
-450.938	-96.213	-0.534	-0.143
-449.924	-156.324	-0.190	-0.012
-448.909	-125.317	-0.182	0.028
-447.895	-200.000	-0.010	-0.422
-446.880	-5.673	-0.373	0.258
-445.865	-57.623	0.112	0.049
-444.851	410.862	0.091	0.195
-443.836	800.000	0.101	0.373
-442.822	-88.247	0.187	0.057
-441.807	-38.575	-0.175	-0.094
-440.792	133.037	-0.059	-0.077
-439.778	40.196	-0.223	-0.202
-438.763	-130.957	0.212	0.029
-437.749	52.530	0.057	-0.055
-436.734	96.480	0.085	0.098
-435.719	-200.000	-0.041	-0.501
-434.705	-54.393	-0.063	0.029
-433.690	-61.690	-0.236	0.100
-432.676	-200.000	-0.001	0.108
-431.661	-117.729	-0.101	0.018
-430.646	90.339	-0.103	-0.116
-429.632	-77.370	-0.064	0.023
-428.617	-104.180	0.237	-0.055
-427.603	396.800	-0.180	0.380
-426.588	-200.000	0.013	-0.094
-425.573	22.087	0.121	-0.100
-424.559	-111.509	-0.119	-0.024
-423.544	105.909	0.087	-0.103
-422.530	-55.473	-0.247	-0.112
-421.515	-140.260	-0.107	0.011
-420.500	368.557	0.103	-0.211
-419.486	364.902	0.157	0.318
-418.471	-93.200	-0.354	0.099
-417.457	-98.201	-0.038	-0.010
-416.442	-48.705	0.135	-0.065
-415.428	331.023	-0.152	0.296
-414.413	258.448	0.051	0.089
-413.398	-152.226	0.211	0.015
-412.384	-164.693	0.248	0.011
-411.369	-30.070	0.097	-0.056
-410.355	-9.503	-0.027	-0.018
-409.340	-67.795	-0.171	-0.067
-408.325	53.441	-0.113	0.109
-407.311	-79.746	-0.145	0.049
-406.296	-200.000	0.035	0.478
-405.282	101.338	0.190	-0.223
-404.267	-141.834	0.100	0.010
-403.252	408.531	-0.082	-0.176
-402.238	125.424	-0.171	-0.218
-401.223	516.209	0.136	-0.321
-400.209	70.020	0.114	-0.118
-399.194	-89.287	-0.413	-0.123
-398.179	800.000	-0.166	0.470
-397.165	241.698	0.297	0.500
-396.150	152.573	0.247	-0.339
-395.136	374.522	-0.068	-0.139
-394.121	619.882	0.053	-0.135
-393.106	158.932	0.212	-0.296
-392.092	-4.015	-0.051	0.036
-391.077	-38.194	0.033	-0.018
-390.063	64.891	-0.314	-0.319
-389.048	-3.281	-0.332	-0.233
-388.033	-9.403	-0.107	0.072
-387.019	-106.539	0.421	0.095
-386.004	-94.222	0.178	-0.049
-384.990	-200.000	-0.003	-0.346
-383.975	-112.159	0.018	-0.004
-382.960	-83.470	0.114	-0.037
-381.946	-7.186	-0.082	-0.056
-380.931	-18.752	-0.167	-0.105
-379.917	712.616	-0.083	0.222
-378.902	-104.063	0.153	-0.036
-377.888	83.165	-0.194	-0.212
-376.873	51.026	-0.050	0.048
-375.858	243.847	0.105	0.178
-374.844	800.000	0.094	0.364
-373.829	-5.109	-0.055	-0.038
-372.815	-77.518	0.303	-0.106
-371.800	-97.635	-0.011	0.003
-370.785	-82.162	0.142	0.047
-369.771	-30.678	0.337	0.192
-368.756	-45.975	-0.050	0.025
-367.742	-200.000	-0.055	-0.275
-366.727	568.913	-0.126	-0.310
-365.712	-58.774	-0.232	0.101
-364.698	-102.690	0.058	0.014
-363.683	392.530	-0.105	-0.219
-362.669	-47.345	0.404	-0.198
-361.654	70.439	-0.033	0.034
-360.639	174.205	0.246	0.358
-359.625	-46.382	0.237	0.117
-358.610	-76.499	0.189	0.067
-357.596	53.766	-0.157	-0.151
-356.581	-29.561	0.134	0.077
-355.566	163.985	-0.184	-0.261
-354.552	800.000	-0.055	0.182
-353.537	800.000	0.057	0.207
-352.523	-48.952	-0.043	0.021
-351.508	6.301	0.162	-0.121
-350.493	800.000	-0.019	0.056
-349.479	-200.000	-0.032	-0.168
-348.464	-36.481	0.055	0.030
-347.450	140.595	-0.083	-0.110
-346.435	-134.835	0.169	-0.021
-345.420	-200.000	0.050	-0.315
-344.406	57.221	0.057	0.056
-343.391	49.380	-0.265	0.251
-342.377	-14.497	0.313	-0.203
-341.362	-85.163	0.387	0.122
-340.348	-200.000	-0.004	-0.153
-339.333	-83.981	0.126	-0.040
-338.318	-137.316	0.321	0.037
-337.304	-68.754	-0.156	-0.061
-336.289	-149.733	0.380	-0.030
-335.275	314.831	-0.143	-0.271
-334.260	244.967	-0.135	-0.229
-333.245	-38.107	0.187	0.100
-332.231	-56.221	-0.369	0.165
-331.216	173.724	0.169	-0.245
-330.202	358.417	0.091	0.183
-329.187	531.087	0.088	-0.209
-328.172	31.038	0.119	-0.103
-327.158	-47.026	0.171	-0.084
-326.143	-39.704	0.345	0.182
-325.129	213.829	-0.150	0.239
-324.114	800.000	-0.042	0.184
-323.099	800.000	-0.065	-0.213
-322.085	800.000	0.075	0.238
-321.070	-134.067	0.097	0.012
-320.056	73.498	-0.151	-0.159
-319.041	443.740	0.149	-0.329
-318.026	95.137	-0.188	-0.215
-317.012	14.058	-0.140	-0.110
-315.997	-131.264	-0.105	0.014
-314.983	-20.431	-0.028	-0.017
-313.968	25.269	-0.403	0.336
-312.953	-163.148	-0.254	-0.012
-311.939	-47.581	0.292	-0.142
-310.924	-9.770	0.119	0.079
-309.910	-58.702	0.176	0.076
-308.895	-34.096	-0.348	-0.192
-307.880	-2.388	-0.061	-0.043
-306.866	800.000	0.056	0.232
-305.851	-111.675	0.075	0.015
-304.837	-113.260	-0.323	0.064
-303.822	-79.624	0.139	-0.047
-302.807	-200.000	0.065	-0.333
-301.793	31.567	0.143	-0.124
-300.778	-5.992	-0.175	-0.121
-299.764	-200.000	-0.005	-0.136
-298.749	221.101	0.129	-0.208
-297.735	-199.052	-0.105	0.001
-296.720	279.084	0.097	0.174
-295.705	428.805	-0.048	0.104
-294.691	-200.000	0.049	0.235
-293.676	271.203	-0.178	-0.315
-292.662	-15.509	0.248	0.159
-291.647	800.000	0.090	0.250
-290.632	-67.078	0.194	0.077
-289.618	419.701	0.015	0.032
-288.603	-200.000	-0.009	-0.468
-287.589	149.942	0.033	-0.045
-286.574	221.831	0.128	0.206
-285.559	-19.415	0.278	-0.173
-284.545	234.685	-0.147	0.244
-283.530	485.116	0.184	-0.420
-282.516	41.734	0.133	-0.121
-281.501	69.481	-0.080	0.082
-280.486	125.288	-0.172	-0.218
-279.472	98.209	0.242	-0.279
-278.457	-200.000	-0.011	-0.065
-277.443	-200.000	-0.011	-0.117
-276.428	-5.388	0.105	0.073
-275.413	-65.048	-0.279	0.113
-274.399	-200.000	0.052	-0.231
-273.384	-190.388	0.490	-0.005
-272.370	-200.000	-0.003	-0.194
-271.355	41.435	0.119	0.108
-270.340	-64.504	0.233	-0.095
-269.326	-200.000	0.006	-0.052
-268.311	32.756	0.201	0.174
-267.297	417.187	0.097	0.209
-266.282	-200.000	0.014	-0.101
-265.267	106.437	-0.160	0.190
-264.253	399.669	-0.134	0.282
-263.238	-200.000	-0.008	0.076
-262.224	17.617	0.158	0.126
-261.209	-26.298	-0.133	-0.079
-260.195	-38.956	0.074	-0.039
-259.180	-200.000	0.061	-0.338
-258.165	35.943	0.118	-0.104
-257.151	16.670	-0.109	-0.086
-256.136	800.000	0.067	-0.250
-255.122	-182.070	-0.179	0.003
-254.107	199.901	0.065	0.099
-253.092	-200.000	-0.031	0.159
-252.078	-20.996	-0.110	-0.068
-251.063	755.817	-0.041	-0.112
-250.049	-43.882	0.119	-0.060
-249.034	211.603	-0.066	-0.104
-248.019	-6.272	-0.141	-0.096
-247.005	-145.159	0.138	0.013
-245.990	800.000	0.045	-0.170
-244.976	-18.038	-0.200	0.126
-243.961	-79.829	0.007	0.002
-242.946	800.000	-0.037	0.122
-241.932	82.916	0.231	0.251
-240.917	6.829	0.144	0.108
-239.903	30.237	0.119	-0.102
-238.888	800.000	-0.036	0.130
-237.873	-117.111	-0.254	0.046
-236.859	10.521	0.213	0.163
-235.844	-200.000	-0.016	-0.209
-234.830	133.276	-0.179	0.232
-233.815	-48.444	-0.249	-0.120
-232.800	-158.008	-0.194	-0.011
-231.786	81.848	0.181	0.197
-230.771	22.334	0.039	0.032
-229.757	-200.000	0.010	0.070
-228.742	2.601	0.198	0.143
-227.727	-103.229	0.134	0.032
-226.713	193.562	0.096	0.146
-225.698	-135.088	0.251	0.030
-224.684	-200.000	-0.021	-0.222
-223.669	-200.000	-0.046	0.322
-222.655	17.635	-0.085	0.068
-221.640	138.163	0.096	-0.126
-220.625	-116.851	0.058	-0.011
-219.611	278.911	0.046	-0.083
-218.596	175.498	0.087	0.126
-217.582	-200.000	0.005	-0.264
-216.567	525.885	-0.097	-0.228
-215.552	800.000	0.114	0.386
-214.538	-200.000	0.026	0.223
-213.523	-200.000	-0.011	-0.118
-212.509	580.590	0.110	-0.269
-211.494	-6.396	-0.044	0.030
-210.479	-200.000	0.039	0.231
-209.465	-99.768	-0.330	-0.083
-208.450	-171.216	-0.259	0.009
-207.436	-163.504	0.419	-0.020
-206.421	-89.850	-0.214	-0.063
-205.406	160.699	-0.125	-0.174
-204.392	-200.000	-0.009	0.262
-203.377	800.000	0.026	0.105
-202.363	206.823	-0.046	0.072
-201.348	-138.442	0.191	-0.021
-200.333	-7.376	-0.053	0.036
-199.319	131.559	-0.238	-0.305
-198.304	71.315	-0.106	-0.110
-197.290	123.891	-0.025	-0.031
-196.275	-55.377	0.360	0.162
-195.260	-200.000	-0.006	-0.146
-194.246	-90.858	0.200	-0.057
-193.231	101.192	0.174	0.203
-192.217	-130.205	-0.234	0.032
-191.202	-136.375	0.237	0.028
-190.187	-180.762	0.081	-0.002
-189.173	57.684	-0.193	0.188
-188.158	448.309	-0.098	-0.217
-187.144	-200.000	0.000	0.391
-186.129	-27.677	0.125	-0.073
-185.114	86.958	0.151	0.167
-184.100	-200.000	0.027	0.134
-183.085	297.926	0.040	0.073
-182.071	-185.342	0.165	-0.003
-181.056	166.907	0.108	-0.153
-180.042	-34.127	-0.252	0.139
-179.027	-200.000	0.008	0.082
-178.012	800.000	0.066	-0.230
-176.998	116.640	0.056	-0.068
-175.983	-108.142	0.133	-0.029
-174.969	249.994	-0.166	0.281
-173.954	76.023	0.143	-0.151
-172.939	-86.583	-0.302	0.093
-171.925	-172.583	0.442	0.014
-170.910	-45.417	0.059	0.029
-169.896	550.651	-0.035	-0.084
-168.881	-106.667	0.288	-0.064
-167.866	78.532	-0.092	0.098
-166.852	-37.705	-0.131	-0.070
-165.837	91.979	-0.137	0.154
-164.823	-200.000	0.009	-0.088
-163.808	-200.000	0.039	-0.171
-162.793	-34.491	-0.175	-0.096
-161.779	206.372	0.191	-0.297
-160.764	157.851	0.213	-0.295
-159.750	-200.000	0.002	0.159
-158.735	-200.000	0.029	0.395
-157.720	-64.011	0.154	0.063
-156.706	242.651	0.169	-0.282
-155.691	5.974	-0.073	0.054
-154.677	800.000	-0.048	0.178
-153.662	506.441	-0.088	0.204
-152.647	-67.606	-0.047	-0.019
-151.633	-93.445	0.219	-0.061
-150.618	-126.830	-0.168	-0.025
-149.604	800.000	0.050	0.198
-148.589	44.692	-0.285	-0.262
-147.574	-56.056	0.349	-0.155
-146.560	800.000	-0.097	0.344
-145.545	-37.351	0.342	-0.183
-144.531	-107.939	0.300	0.065
-143.516	374.237	0.084	-0.171
-142.502	43.697	0.128	0.117
-141.487	-13.003	-0.163	-0.106
-140.472	-200.000	0.049	0.319
-139.458	-200.000	0.003	-0.138
-138.443	37.811	-0.057	-0.050
-137.429	-180.059	-0.139	0.003
-136.414	-75.029	0.438	-0.157
-135.399	69.821	0.284	-0.293
-134.385	464.934	0.077	0.172
-133.370	34.780	-0.230	0.200
-132.356	-19.559	0.298	0.184
-131.341	-152.972	-0.161	-0.011
-130.326	-200.000	0.045	0.197
-129.312	-145.689	-0.270	-0.024
-128.297	-8.314	-0.269	-0.180
-127.283	-51.854	-0.274	0.127
-126.268	-96.259	0.180	0.048
-125.253	771.195	-0.093	-0.253
-124.239	405.184	0.247	-0.520
-123.224	128.520	-0.139	-0.177
-122.210	-200.000	0.017	0.245
-121.195	148.736	0.081	0.109
