DTS Sentinel unit serial number:	SN413079Multiplexer serial number:	ORYXHardware model number:	OX4-SRSoftware version number:	ORYX F/W v4.00 Oryx Data Collector v3.7.2.0data status	okinstallation	princeton_trtdifferential loss correction	single-endedforward channel	channel 1reverse channel	N/Adate	2019/09/17time	02:42:35forward acquisition time	60.00reverse acquisition time	0.00gamma	496.2192k internal	0.2323k external	0.2323temperature offset calibration	0.9954default loss term (dB/km)	0.3790temperature slope calibration	1.0000multiplexer offset coefficient	1.0000multiplexer slope coefficient	1.0000fibre end	0.00T internal ref (°C)	29.86T ext. ref 1 (°C)	0.13T ext. ref 2 (°C)	24.85length (m)	temperature (°C)	Stokes	anti-Stokes-747.200	21.609	0.102	-0.084
-746.185	378.856	-0.215	-0.444
-745.171	-200.000	-0.010	0.122
-744.156	-49.395	0.366	0.176
-743.142	800.000	0.038	-0.159
-742.127	-66.042	0.224	0.090
-741.112	-104.658	0.184	0.043
-740.098	-99.385	0.052	-0.013
-739.083	102.092	-0.177	0.208
-738.069	-200.000	-0.014	0.094
-737.054	109.844	0.174	0.210
-736.039	-200.000	0.001	-0.062
-735.025	-15.574	0.033	0.021
-734.010	93.413	-0.111	-0.127
-732.996	800.000	-0.034	-0.150
-731.981	-57.125	0.344	-0.153
-730.966	800.000	-0.045	0.161
-729.952	209.110	-0.096	-0.151
-728.937	-17.203	-0.031	-0.020
-727.923	-174.711	-0.212	-0.006
-726.908	-31.299	-0.077	0.044
-725.894	-200.000	0.099	-0.000
-724.879	167.691	-0.119	-0.171
-723.864	698.605	-0.039	-0.103
-722.850	47.970	-0.084	-0.079
-721.835	-103.151	0.219	-0.052
-720.821	253.038	0.025	-0.043
-719.806	61.935	0.095	0.096
-718.791	8.714	-0.120	0.091
-717.777	712.877	0.111	0.295
-716.762	-100.076	-0.462	-0.116
-715.748	308.539	-0.023	0.044
-714.733	-107.451	-0.451	0.100
-713.718	-200.000	0.006	-0.106
-712.704	21.076	-0.062	-0.050
-711.689	145.449	-0.152	0.205
-710.675	492.452	0.150	0.347
-709.660	44.455	-0.063	-0.059
-708.645	-167.853	-0.122	-0.005
-707.631	-114.550	0.345	0.067
-706.616	157.577	-0.111	-0.155
-705.602	15.552	0.090	0.071
-704.587	-200.000	0.016	0.344
-703.572	327.860	0.056	-0.109
-702.558	-105.021	0.316	0.073
-701.543	-175.439	0.195	0.005
-700.529	195.150	0.026	0.040
-699.514	-66.659	-0.181	0.072
-698.499	-55.449	-0.223	-0.101
-697.485	-75.467	0.342	-0.123
-696.470	-200.000	0.032	0.256
-695.456	800.000	0.097	-0.324
-694.441	421.919	-0.107	0.231
-693.426	-0.679	0.200	-0.143
-692.412	-1.044	0.157	-0.112
-691.397	-113.379	0.106	-0.021
-690.383	30.321	-0.037	0.032
-689.368	-107.014	-0.085	0.019
-688.354	144.804	-0.222	-0.298
-687.339	-166.651	0.265	-0.011
-686.324	20.123	0.293	-0.238
-685.310	-65.543	0.129	-0.052
-684.295	800.000	0.099	0.434
-683.281	-128.006	-0.162	-0.023
-682.266	452.559	0.154	-0.343
-681.251	-153.346	0.133	-0.009
-680.237	8.271	-0.288	-0.218
-679.222	-50.153	-0.307	-0.146
-678.208	39.416	-0.106	0.096
-677.193	767.828	0.035	0.095
-676.178	114.403	-0.134	-0.164
-675.164	208.774	0.020	0.031
-674.149	-66.685	-0.190	-0.076
-673.135	-200.000	-0.003	0.160
-672.120	-200.000	0.003	-0.072
-671.105	-151.529	0.072	0.005
-670.091	-153.336	0.296	-0.021
-669.076	-73.223	0.161	0.059
-668.062	7.879	-0.062	0.047
-667.047	-118.734	0.437	0.078
-666.032	-44.307	-0.140	0.071
-665.018	-132.869	0.207	0.027
-664.003	90.807	-0.144	-0.163
-662.989	30.378	-0.162	-0.139
-661.974	91.883	0.096	-0.109
-660.959	566.123	-0.075	-0.182
-659.945	-68.460	-0.346	-0.135
-658.930	69.637	-0.175	-0.181
-657.916	800.000	-0.006	0.015
-656.901	-200.000	0.029	-0.189
-655.886	800.000	-0.040	0.160
-654.872	-136.239	-0.176	0.021
-653.857	35.489	0.202	-0.179
-652.843	-60.456	0.278	0.119
-651.828	-93.520	-0.185	-0.052
-650.814	-73.579	0.200	-0.073
-649.799	-128.788	-0.229	0.032
-648.784	66.545	-0.181	0.185
-647.770	371.637	0.098	0.200
-646.755	154.778	-0.104	-0.144
-645.741	-175.703	0.234	-0.006
-644.726	-130.596	-0.191	-0.026
-643.711	-40.335	0.186	0.097
-642.697	128.600	-0.203	0.260
-641.682	731.389	-0.079	-0.213
-640.668	43.709	0.084	-0.077
-639.653	-200.000	-0.023	0.191
-638.638	564.424	0.100	-0.244
-637.624	241.102	0.064	-0.108
-636.609	-75.042	0.101	-0.036
-635.595	181.845	-0.125	0.185
-634.580	-200.000	0.120	-0.000
-633.565	-200.000	0.004	-0.107
-632.551	800.000	-0.065	-0.190
-631.536	-27.952	0.038	-0.022
-630.522	-118.367	-0.289	0.052
-629.507	-200.000	0.028	0.178
-628.492	-137.698	-0.044	0.005
-627.478	-147.147	0.346	0.030
-626.463	122.037	0.071	0.089
-625.449	65.642	-0.046	-0.047
-624.434	-140.190	0.215	-0.023
-623.419	20.565	-0.280	-0.228
-622.405	-99.194	-0.216	0.055
-621.390	-41.815	0.257	0.133
-620.376	800.000	-0.034	-0.141
-619.361	-97.539	0.160	0.042
-618.346	685.102	0.046	-0.119
-617.332	-137.970	-0.247	0.028
-616.317	-126.727	-0.295	0.044
-615.303	800.000	-0.143	-0.456
-614.288	315.319	0.162	0.307
-613.273	89.569	-0.159	0.178
-612.259	145.980	0.137	0.184
-611.244	-78.296	-0.286	0.099
-610.230	-133.395	0.399	0.050
-609.215	-70.962	-0.358	0.135
-608.201	4.040	0.173	-0.127
-607.186	38.142	-0.177	0.159
-606.171	-63.879	-0.481	0.197
-605.157	-200.000	0.017	0.111
-604.142	-200.000	0.015	-0.457
-603.128	-200.000	0.033	-0.262
-602.113	-24.626	-0.129	-0.077
-601.098	-160.274	0.140	0.008
-600.084	-59.308	0.249	0.108
-599.069	-28.838	0.130	-0.075
-598.055	25.975	-0.176	0.148
-597.040	122.150	0.251	-0.315
-596.025	800.000	0.082	0.255
-595.011	-112.934	-0.084	-0.017
-593.996	559.583	-0.088	-0.212
-592.982	800.000	0.034	-0.097
-591.967	-60.827	0.388	0.165
-590.952	369.081	0.148	-0.301
-589.938	-134.946	-0.415	-0.050
-588.923	-3.300	0.180	-0.126
-587.909	-78.467	-0.313	-0.108
-586.894	-179.171	0.181	0.004
-585.879	37.333	-0.166	0.148
-584.865	108.130	0.085	-0.102
-583.850	43.373	-0.149	-0.137
-582.836	-200.000	0.009	-0.095
-581.821	36.486	0.133	-0.118
-580.806	-79.294	-0.162	0.055
-579.792	-200.000	0.008	-0.085
-578.777	643.247	0.109	-0.278
-577.763	-76.710	-0.199	0.070
-576.748	800.000	0.055	-0.169
-575.733	179.508	0.099	-0.146
-574.719	-200.000	-0.003	-0.048
-573.704	-200.000	0.025	0.152
-572.690	-64.594	0.150	0.061
-571.675	800.000	0.021	0.062
-570.661	137.675	0.108	0.142
-569.646	-70.056	-0.138	-0.053
-568.631	-51.108	0.405	0.191
-567.617	-200.000	0.017	-0.167
-566.602	-23.980	0.131	-0.078
-565.588	13.923	0.060	-0.047
-564.573	-38.107	-0.200	0.106
-563.558	-121.811	-0.142	-0.024
-562.544	-2.062	0.375	-0.264
-561.529	672.216	-0.163	0.425
-560.515	-55.010	-0.170	-0.077
-559.500	-23.164	-0.314	-0.190
-558.485	-161.168	0.245	0.013
-557.471	-162.258	0.263	-0.013
-556.456	-128.810	-0.250	-0.035
-555.442	13.464	-0.062	0.048
-554.427	-200.000	0.083	0.381
-553.412	-200.000	0.047	-0.321
-552.398	800.000	-0.044	-0.190
-551.383	-185.224	-0.270	0.004
-550.369	-108.261	-0.280	0.061
-549.354	404.287	0.167	0.352
-548.339	77.423	0.156	0.166
-547.325	-200.000	-0.004	-0.063
-546.310	-55.223	-0.164	-0.074
-545.296	132.547	0.173	-0.223
-544.281	181.004	-0.050	0.074
-543.266	-24.095	0.277	-0.166
-542.252	-128.424	0.251	0.036
-541.237	528.358	-0.075	0.178
-540.223	-42.356	-0.265	-0.135
-539.208	86.585	0.138	0.152
-538.193	800.000	-0.044	0.128
-537.179	800.000	-0.051	0.203
-536.164	13.835	-0.156	0.121
-535.150	128.901	0.136	0.173
-534.135	245.358	-0.094	-0.158
-533.121	269.006	-0.013	-0.022
-532.106	800.000	0.065	0.194
-531.091	87.694	0.168	0.186
-530.077	-99.899	-0.310	0.078
-529.062	63.335	0.109	-0.109
-528.048	-200.000	-0.027	-0.246
-527.033	87.269	0.173	-0.191
-526.018	-35.998	0.075	0.041
-525.004	-200.000	-0.040	-0.235
-523.989	-44.765	-0.260	-0.130
-522.975	112.480	0.113	0.137
-521.960	-118.523	0.378	-0.067
-520.945	433.581	-0.052	0.113
-519.931	-61.882	0.312	-0.131
-518.916	95.786	-0.311	0.355
-517.902	800.000	0.032	0.096
-516.887	-58.677	-0.177	0.077
-515.872	30.356	-0.186	-0.159
-514.858	800.000	0.068	-0.239
-513.843	-110.684	-0.151	-0.031
-512.829	-17.045	-0.250	0.158
-511.814	-200.000	0.006	-0.206
-510.799	340.894	0.077	-0.150
-509.785	-96.561	-0.136	0.036
-508.770	-78.562	-0.293	-0.100
-507.756	-168.138	0.135	0.005
-506.741	494.192	0.068	0.155
-505.726	89.223	0.070	0.079
-504.712	-162.680	-0.258	0.013
-503.697	-200.000	0.022	0.211
-502.683	308.929	-0.194	-0.363
-501.668	-200.000	-0.028	-0.129
-500.653	276.810	0.134	-0.239
-499.639	-56.268	0.240	-0.107
-498.624	161.713	-0.098	-0.137
-497.610	-200.000	0.018	-0.203
-496.595	-23.389	-0.453	0.272
-495.581	210.192	-0.042	0.066
-494.566	-200.000	-0.035	0.214
-493.551	-200.000	-0.037	0.181
-492.537	-163.224	0.137	0.007
-491.522	-188.954	-0.033	-0.000
-490.508	138.798	0.068	0.090
-489.493	78.336	-0.102	-0.109
-488.478	648.835	-0.066	-0.170
-487.464	0.999	0.129	-0.092
-486.449	-44.536	0.162	0.081
-485.435	-92.537	0.259	0.073
-484.420	314.734	0.076	-0.143
-483.405	266.113	0.121	0.211
-482.391	-200.000	0.036	0.257
-481.376	255.125	0.083	0.142
-480.362	4.147	0.083	-0.061
-479.347	259.862	-0.034	-0.059
-478.332	-59.920	-0.228	0.098
-477.318	-62.022	0.204	-0.085
-476.303	357.501	0.076	0.151
-475.289	-173.470	-0.440	0.013
-474.274	-47.537	0.271	0.132
-473.259	-37.622	-0.182	0.097
-472.245	-87.514	-0.052	-0.016
-471.230	-101.293	-0.185	-0.045
-470.216	-10.815	-0.340	0.225
-469.201	431.128	-0.131	0.284
-468.186	-54.486	-0.178	0.080
-467.172	59.861	-0.325	0.321
-466.157	-137.660	0.359	-0.040
-465.143	-112.897	0.130	-0.026
-464.128	-68.669	0.200	-0.077
-463.113	-70.343	-0.334	0.127
-462.099	19.249	-0.245	-0.196
-461.084	800.000	0.025	-0.083
-460.070	-153.042	0.065	-0.005
-459.055	-113.576	0.245	-0.048
-458.040	108.168	-0.214	-0.254
-457.026	800.000	-0.049	-0.171
-456.011	403.982	0.051	-0.107
-454.997	-118.143	0.253	0.045
-453.982	-33.808	-0.147	-0.081
-452.968	-41.103	-0.351	-0.181
-451.953	22.981	0.116	-0.095
-450.938	10.236	-0.158	0.120
-449.924	-23.173	-0.185	0.111
-448.909	41.116	-0.208	-0.187
-447.895	-199.472	-0.279	-0.001
-446.880	339.033	0.162	0.314
-445.865	156.646	0.050	0.069
-444.851	-52.139	-0.102	-0.047
-443.836	-136.326	-0.110	0.013
-442.822	-44.530	-0.120	0.060
-441.807	55.959	-0.142	-0.137
-440.792	-164.603	-0.193	-0.009
-439.778	-110.363	0.284	-0.059
-438.763	-159.396	0.124	-0.007
-437.749	-71.784	0.305	0.113
-436.734	553.750	0.057	-0.137
-435.719	9.933	0.063	0.048
-434.705	628.617	-0.055	0.139
-433.690	498.955	0.172	-0.395
-432.676	180.860	-0.047	-0.069
-431.661	56.964	0.088	0.086
-430.646	-94.561	-0.134	-0.036
-429.632	26.590	0.198	0.165
-428.617	-84.611	0.180	-0.057
-427.603	-200.000	0.043	-0.219
-426.588	-90.999	0.163	0.047
-425.573	-87.907	-0.099	-0.030
-424.559	800.000	0.121	-0.463
-423.544	140.172	-0.326	-0.429
-422.530	-83.147	0.110	0.035
-421.515	65.214	0.265	0.267
-420.500	-181.325	-0.239	-0.005
-419.486	250.522	0.233	-0.395
-418.471	-91.438	0.308	-0.088
-417.457	-81.514	0.403	0.132
-416.442	800.000	0.024	0.094
-415.428	227.438	0.098	-0.159
-414.413	-4.317	-0.109	-0.075
-413.398	-35.162	0.043	0.023
-412.384	-152.030	-0.350	0.025
-411.369	75.310	0.182	-0.191
-410.355	46.190	-0.207	0.191
-409.340	389.657	-0.096	-0.198
-408.325	-1.021	-0.145	0.102
-407.311	-200.000	-0.039	-0.203
-406.296	-84.148	0.109	-0.034
-405.282	96.613	0.199	-0.227
-404.267	-49.199	0.216	0.103
-403.252	-55.689	0.200	-0.089
-402.238	-200.000	0.009	-0.106
-401.223	-200.000	0.021	-0.194
-400.209	-200.000	-0.014	0.176
-399.194	-39.753	0.103	-0.053
-398.179	284.644	0.094	0.169
-397.165	-34.577	0.292	0.159
-396.150	325.855	-0.090	-0.171
-395.136	201.249	-0.117	-0.179
-394.121	385.137	-0.031	-0.065
-393.106	-24.078	0.296	-0.176
-392.092	-26.865	-0.201	0.117
-391.077	-108.401	-0.281	0.060
-390.063	117.127	-0.184	-0.225
-389.048	-194.966	0.276	0.002
-388.033	-200.000	0.019	0.128
-387.019	-108.048	-0.161	0.035
-386.004	30.957	-0.084	0.072
-384.990	70.196	0.249	0.256
-383.975	-33.646	-0.472	0.259
-382.960	800.000	0.066	0.200
-381.946	-49.896	-0.402	0.190
-380.931	105.165	0.103	-0.122
-379.917	-200.000	-0.003	0.286
-378.902	85.117	-0.070	0.076
-377.888	-54.641	0.367	0.165
-376.873	83.610	-0.137	0.149
-375.858	153.343	0.019	0.026
-374.844	-200.000	-0.013	-0.153
-373.829	-143.922	0.463	0.043
-372.815	207.226	0.114	-0.177
-371.800	-105.733	0.515	0.116
-370.785	26.338	0.261	-0.217
-369.771	57.097	-0.253	-0.246
-368.756	-35.851	0.026	-0.014
-367.742	226.912	-0.026	-0.042
-366.727	800.000	0.121	0.379
-365.712	411.319	0.073	-0.154
-364.698	25.574	0.371	-0.307
-363.683	-200.000	0.027	0.288
-362.669	-53.150	0.187	0.085
-361.654	266.066	-0.123	-0.214
-360.639	-200.000	-0.014	-0.094
-359.625	-3.659	0.195	0.135
-358.610	-200.000	0.027	-0.117
-357.596	171.474	0.156	-0.223
-356.581	800.000	-0.012	-0.042
-355.566	131.641	-0.241	0.308
-354.552	-40.367	-0.176	-0.091
-353.537	251.654	-0.112	-0.190
-352.523	64.152	-0.305	-0.305
-351.508	-109.441	0.201	-0.042
-350.493	-150.846	-0.441	-0.033
-349.479	-193.005	-0.112	-0.001
-348.464	-51.493	-0.204	-0.095
-347.450	-200.000	-0.024	-0.229
-346.435	-52.487	0.142	0.066
-345.420	-12.609	-0.037	0.024
-344.406	383.484	0.180	0.368
-343.391	328.146	0.107	-0.204
-342.377	87.256	-0.267	-0.293
-341.362	78.230	0.235	0.249
-340.348	-200.000	0.003	0.076
-339.333	187.720	0.115	0.171
-338.318	-108.014	0.211	-0.046
-337.304	-200.000	0.061	0.283
-336.289	553.632	-0.103	0.247
-335.275	-15.182	0.559	0.355
-334.260	-42.581	-0.282	0.143
-333.245	-200.000	-0.008	0.162
-332.231	800.000	0.041	0.165
-331.216	145.172	0.125	0.166
-330.202	120.388	0.240	0.296
-329.187	334.767	-0.042	-0.082
-328.172	-200.000	-0.039	0.324
-327.158	-48.851	-0.182	-0.087
-326.143	58.975	0.233	-0.228
-325.129	0.056	-0.245	-0.173
-324.114	800.000	0.101	0.312
-323.099	-125.311	0.166	0.025
-322.085	130.780	-0.054	0.068
-321.070	-84.279	-0.184	-0.058
-320.056	-44.687	0.350	0.173
-319.041	704.197	-0.133	0.347
-318.026	15.489	-0.152	-0.119
-317.012	800.000	-0.047	0.139
-315.997	-55.402	0.015	0.007
-314.983	-200.000	0.018	-0.084
-313.968	-130.189	-0.124	0.017
-312.953	800.000	-0.136	-0.472
-311.939	-32.089	0.073	-0.041
-310.924	-200.000	-0.003	0.136
-309.910	-200.000	0.024	0.140
-308.895	-39.942	0.125	-0.065
-307.880	-38.895	0.209	0.109
-306.866	800.000	-0.067	-0.227
-305.851	800.000	0.046	0.148
-304.837	-200.000	0.048	-0.236
-303.822	-148.997	-0.038	0.003
-302.807	5.702	-0.093	-0.068
-301.793	800.000	-0.102	0.313
-300.778	37.700	0.318	0.280
-299.764	-200.000	0.059	0.387
-298.749	-98.626	-0.135	-0.034
-297.735	95.415	0.077	-0.087
-296.720	12.592	-0.252	0.193
-295.705	-116.913	-0.092	-0.017
-294.691	800.000	-0.082	0.238
-293.676	83.995	-0.151	0.164
-292.662	561.892	0.061	0.147
-291.647	80.543	-0.106	0.113
-290.632	800.000	-0.026	0.100
-289.618	-70.871	-0.199	-0.074
-288.603	-11.153	0.147	-0.096
-287.589	516.961	-0.035	0.082
-286.574	340.631	0.002	-0.005
-285.559	423.461	-0.136	-0.289
-284.545	187.072	-0.027	0.040
-283.530	-67.369	-0.254	-0.099
-282.516	-22.087	0.381	-0.229
-281.501	177.692	0.158	0.228
-280.486	60.274	0.150	-0.147
-279.472	-125.477	-0.114	-0.017
-278.457	-109.223	0.095	0.020
-277.443	-56.291	0.225	-0.099
-276.428	-89.226	0.075	-0.022
-275.413	241.812	0.129	0.214
-274.399	-130.576	0.105	0.014
-273.384	284.030	0.119	-0.213
-272.370	-79.264	0.350	0.118
-271.355	159.089	-0.088	-0.121
-270.340	480.089	0.041	0.091
-269.326	657.158	-0.005	-0.013
-268.311	-117.942	-0.159	-0.028
-267.297	637.776	-0.045	-0.113
-266.282	98.859	0.122	0.140
-265.267	800.000	-0.030	0.087
-264.253	-69.061	0.307	0.117
-263.238	3.513	0.162	0.117
-262.224	131.769	0.147	-0.187
-261.209	-105.635	-0.034	0.008
-260.195	38.410	0.015	-0.014
-259.180	-73.611	-0.306	0.110
-258.165	-130.574	-0.303	0.041
-257.151	-145.091	0.137	0.012
-256.136	-174.937	0.232	0.006
-255.122	800.000	-0.014	0.043
-254.107	-53.622	-0.419	-0.190
-253.092	-200.000	0.046	-0.259
-252.078	-200.000	-0.045	0.231
-251.063	56.668	-0.289	0.279
-250.049	0.752	0.087	0.061
-249.034	-192.135	-0.184	-0.002
-248.019	64.697	0.176	-0.176
-247.005	340.452	0.158	0.305
-245.990	-200.000	0.010	-0.226
-244.976	-200.000	0.036	-0.320
-243.961	269.328	-0.121	-0.211
-242.946	286.049	0.110	-0.196
-241.932	-81.570	0.111	-0.036
-240.917	22.494	0.130	0.105
-239.903	70.767	0.118	-0.121
-238.888	-200.000	0.067	-0.336
-237.873	-200.000	-0.001	0.290
-236.859	-74.145	0.030	0.011
-235.844	-200.000	-0.027	0.264
-234.830	-113.736	-0.362	-0.070
-233.815	-58.876	-0.328	-0.140
-232.800	-65.473	0.338	-0.134
-231.786	103.230	-0.098	-0.113
-230.771	60.924	0.353	-0.347
-229.757	-200.000	0.020	0.164
-228.742	-59.045	-0.106	0.045
-227.727	151.708	-0.086	-0.116
-226.713	167.689	0.263	-0.370
-225.698	800.000	0.045	-0.182
-224.684	800.000	-0.086	-0.285
-223.669	800.000	-0.103	-0.382
-222.655	-151.724	-0.268	0.019
-221.640	276.850	-0.035	0.062
-220.625	-3.676	0.185	-0.127
-219.611	-126.750	-0.399	-0.058
-218.596	79.716	-0.081	0.086
-217.582	-99.685	-0.173	0.043
-216.567	-67.769	0.238	-0.092
-215.552	245.184	-0.088	0.146
-214.538	-200.000	-0.010	0.091
-213.523	61.029	-0.052	-0.051
-212.509	-71.296	0.249	0.092
-211.494	257.020	-0.131	-0.223
-210.479	-43.166	0.141	-0.071
-209.465	1.015	0.047	0.033
-208.450	126.383	-0.235	0.294
-207.436	-200.000	0.008	0.127
-206.421	464.821	-0.065	0.144
-205.406	-147.935	0.356	-0.029
-204.392	-117.802	-0.301	0.053
-203.377	-102.528	0.060	-0.014
-202.363	-94.456	-0.203	-0.055
-201.348	444.450	0.063	-0.137
-200.333	-119.717	-0.344	-0.059
-199.319	7.315	0.129	-0.096
-198.304	-94.936	0.109	-0.029
-197.290	-73.306	-0.310	-0.112
-196.275	208.248	-0.140	0.216
-195.260	205.539	-0.199	-0.305
-194.246	109.962	-0.082	0.098
-193.231	-40.020	0.509	-0.263
-192.217	609.200	-0.054	-0.133
-191.202	348.871	0.131	-0.255
-190.187	-200.000	-0.070	0.317
-189.173	121.029	-0.170	0.208
-188.158	-200.000	0.009	-0.069
-187.144	-175.386	0.666	0.018
-186.129	269.589	0.096	-0.166
-185.114	144.877	-0.225	0.297
-184.100	6.568	0.094	0.069
-183.085	-5.177	-0.095	0.065
-182.071	-71.095	0.148	-0.055
-181.056	-136.926	-0.255	-0.029
-180.042	-131.350	0.421	0.055
-179.027	-200.000	0.043	-0.198
-178.012	-185.974	0.074	0.001
-176.998	-200.000	-0.010	0.287
-175.983	141.275	-0.092	0.120
-174.969	-200.000	-0.036	0.254
-173.954	253.004	0.102	0.172
-172.939	-200.000	0.004	-0.206
-171.925	122.038	0.090	0.110
-170.910	93.478	-0.122	-0.136
-169.896	-120.370	-0.158	0.027
-168.881	-3.351	0.324	0.223
-167.866	452.075	0.139	0.303
-166.852	-200.000	0.048	0.330
-165.837	-34.187	-0.064	-0.035
-164.823	-157.951	-0.109	-0.006
-163.808	-65.868	-0.417	0.165
-162.793	-11.281	-0.103	0.067
-161.779	800.000	0.085	-0.288
-160.764	-91.246	-0.341	0.096
-159.750	-87.641	-0.415	-0.124
-158.735	209.075	0.088	0.136
-157.720	765.069	0.021	-0.056
-156.706	-107.847	0.041	-0.009
-155.691	-122.966	0.118	0.019
-154.677	493.778	-0.089	-0.202
-153.662	149.961	-0.100	0.133
-152.647	-18.188	-0.162	-0.100
-151.633	-200.000	0.067	0.290
-150.618	-97.847	0.344	-0.088
-149.604	-102.213	-0.336	-0.080
-148.589	135.311	-0.097	0.124
-147.574	-200.000	0.218	0.000
-146.560	-200.000	-0.037	0.335
-145.545	0.465	0.111	-0.078
-144.531	800.000	-0.017	0.047
-143.516	-13.012	-0.211	-0.136
-142.502	32.673	-0.213	0.182
-141.487	41.002	0.227	-0.202
-140.472	149.217	0.024	-0.032
-139.458	-200.000	-0.022	0.271
-138.443	34.400	0.128	-0.110
-137.429	111.872	0.206	0.245
-136.414	800.000	-0.093	-0.259
-135.399	-87.193	0.403	0.121
-134.385	-163.037	0.211	-0.010
-133.370	-90.795	0.236	-0.067
-132.356	-0.155	0.169	-0.119
-131.341	23.294	0.219	0.178
-130.326	-103.346	0.295	0.069
-129.312	160.592	0.301	-0.415
-128.297	-5.234	0.099	0.067
-127.283	217.522	-0.074	-0.116
-126.268	800.000	-0.055	-0.181
-125.253	-58.209	0.330	-0.142
-124.239	-200.000	0.020	-0.088
-123.224	-50.749	-0.209	-0.097
-122.210	800.000	0.033	-0.139
-121.195	-2.061	0.212	0.147
