DTS Sentinel unit serial number:	SN413079Multiplexer serial number:	ORYXHardware model number:	OX4-SRSoftware version number:	ORYX F/W v4.00 Oryx Data Collector v3.7.2.0data status	okinstallation	princeton_trtdifferential loss correction	single-endedforward channel	channel 1reverse channel	N/Adate	2019/09/11time	22:48:11forward acquisition time	60.00reverse acquisition time	0.00gamma	496.2192k internal	0.2316k external	0.2316temperature offset calibration	1.0062default loss term (dB/km)	0.3790temperature slope calibration	1.0000multiplexer offset coefficient	1.0000multiplexer slope coefficient	1.0000fibre end	0.00T internal ref (°C)	34.75T ext. ref 1 (°C)	1.83T ext. ref 2 (°C)	29.30length (m)	temperature (°C)	Stokes	anti-Stokes-747.200	800.000	-0.043	-0.132
-746.185	8.212	0.099	0.075
-745.171	-0.408	0.275	-0.198
-744.156	170.782	-0.154	0.224
-743.142	-107.420	0.380	0.085
-742.127	-107.562	0.052	0.012
-741.112	76.742	0.090	0.096
-740.098	148.429	-0.264	0.361
-739.083	84.580	0.035	-0.039
-738.069	-114.520	-0.147	0.028
-737.054	-59.557	0.316	-0.137
-736.039	152.574	-0.175	-0.243
-735.025	-79.921	0.320	-0.109
-734.010	-200.000	0.018	0.128
-732.996	-195.182	-0.130	-0.001
-731.981	-173.954	-0.238	0.007
-730.966	-56.840	-0.343	-0.153
-729.952	800.000	0.099	0.323
-728.937	72.792	-0.210	0.222
-727.923	17.519	0.189	0.152
-726.908	800.000	0.051	-0.160
-725.894	54.478	-0.101	0.098
-724.879	-51.305	-0.140	-0.066
-723.864	-74.964	0.048	-0.017
-722.850	244.583	0.057	-0.097
-721.835	-200.000	0.032	0.148
-720.821	79.810	-0.191	-0.207
-719.806	11.329	0.380	-0.295
-718.791	-81.176	-0.144	0.048
-717.777	-200.000	0.005	-0.166
-716.762	800.000	0.080	-0.236
-715.748	-19.933	-0.305	-0.190
-714.733	-53.138	0.194	-0.090
-713.718	125.771	0.135	0.173
-712.704	-88.565	0.281	0.085
-711.689	197.645	0.172	-0.266
-710.675	85.095	0.067	-0.075
-709.660	107.527	0.063	0.076
-708.645	-148.688	0.304	0.025
-707.631	441.803	-0.183	-0.406
-706.616	-92.401	-0.091	0.026
-705.602	163.662	-0.177	0.251
-704.587	68.851	0.116	0.120
-703.572	9.593	-0.280	-0.215
-702.558	109.922	0.139	-0.169
-701.543	-15.582	-0.092	0.060
-700.529	169.356	-0.083	0.120
-699.514	133.841	0.111	0.145
-698.499	-89.656	-0.181	-0.054
-697.485	87.601	-0.178	0.199
-696.470	800.000	0.052	-0.231
-695.456	-26.577	0.277	0.164
-694.441	-69.383	0.428	-0.166
-693.426	164.235	-0.081	-0.116
-692.412	772.563	-0.060	0.167
-691.397	-163.473	0.177	-0.009
-690.383	-43.809	-0.170	-0.087
-689.368	-10.913	-0.171	0.114
-688.354	232.818	0.079	0.131
-687.339	212.524	-0.129	0.206
-686.324	-200.000	-0.011	0.237
-685.310	-200.000	-0.024	-0.183
-684.295	-132.367	-0.583	0.076
-683.281	-112.702	0.056	-0.011
-682.266	800.000	-0.045	-0.137
-681.251	22.042	0.110	0.091
-680.237	-129.909	-0.132	0.018
-679.222	-71.534	0.234	-0.088
-678.208	136.057	-0.064	0.084
-677.193	-35.833	0.205	-0.112
-676.178	-70.385	-0.386	-0.148
-675.164	-81.032	0.140	-0.047
-674.149	800.000	-0.048	0.151
-673.135	-104.634	0.173	0.040
-672.120	66.199	-0.127	-0.130
-671.105	800.000	-0.060	-0.237
-670.091	606.218	0.059	0.149
-669.076	-109.610	0.310	0.066
-668.062	800.000	-0.069	0.196
-667.047	-200.000	-0.037	-0.354
-666.032	-200.000	0.011	0.080
-665.018	-67.076	-0.377	0.150
-664.003	800.000	0.042	-0.135
-662.989	-74.594	-0.299	-0.109
-661.974	-200.000	0.000	-0.081
-660.959	630.393	-0.098	0.251
-659.945	2.362	0.025	0.018
-658.930	66.176	0.069	-0.071
-657.916	23.333	-0.098	0.081
-656.901	294.114	0.031	-0.058
-655.886	-127.962	0.368	-0.053
-654.872	109.477	-0.036	0.043
-653.857	-14.756	-0.319	0.207
-652.843	-200.000	-0.002	0.160
-651.828	-200.000	-0.008	-0.076
-650.814	104.016	-0.118	-0.140
-649.799	-200.000	-0.042	-0.219
-648.784	-142.811	0.233	-0.023
-647.770	-200.000	0.016	-0.076
-646.755	470.176	0.168	0.381
-645.741	24.505	0.101	0.085
-644.726	709.615	0.037	0.099
-643.711	-59.092	0.543	-0.236
-642.697	230.814	-0.173	-0.285
-641.682	-85.168	0.079	0.025
-640.668	-200.000	0.017	-0.079
-639.653	332.552	-0.078	-0.152
-638.638	-123.084	-0.111	0.018
-637.624	-200.000	-0.033	-0.237
-636.609	27.145	0.017	0.015
-635.595	184.804	0.019	-0.028
-634.580	-200.000	-0.050	0.447
-633.565	-102.348	-0.554	0.134
-632.551	-72.701	0.141	-0.052
-631.536	494.420	0.072	0.166
-630.522	-52.116	-0.130	0.061
-629.507	34.965	-0.273	0.241
-628.492	11.648	0.327	-0.253
-627.478	91.778	-0.211	0.239
-626.463	71.751	0.175	-0.183
-625.449	557.734	-0.135	0.329
-624.434	-141.772	0.285	0.029
-623.419	196.825	0.118	-0.182
-622.405	-92.762	-0.300	-0.085
-621.390	800.000	0.018	-0.074
-620.376	457.663	-0.021	-0.048
-619.361	-200.000	-0.010	-0.126
-618.346	289.427	0.079	-0.144
-617.332	209.408	0.197	-0.311
-616.317	-62.991	-0.078	-0.033
-615.303	314.792	-0.172	-0.327
-614.288	-200.000	0.059	-0.373
-613.273	-118.509	0.345	-0.062
-612.259	101.691	0.056	0.066
-611.244	-200.000	0.060	-0.305
-610.230	-53.940	-0.223	-0.102
-609.215	-97.951	-0.035	0.009
-608.201	-33.457	-0.287	-0.160
-607.186	-200.000	-0.010	0.284
-606.171	133.129	0.138	-0.180
-605.157	-10.192	-0.227	0.152
-604.142	-67.894	0.048	0.019
-603.128	-71.900	0.233	-0.087
-602.113	109.796	0.135	-0.164
-601.098	-200.000	0.023	-0.172
-600.084	-200.000	-0.009	0.105
-599.069	637.248	0.215	0.549
-598.055	-200.000	0.008	-0.490
-597.040	-200.000	-0.012	-0.055
-596.025	155.365	0.155	-0.215
-595.011	-200.000	0.006	-0.079
-593.996	156.683	0.252	-0.350
-592.982	-161.636	0.215	-0.011
-591.967	800.000	0.050	-0.199
-590.952	-74.312	-0.098	0.036
-589.938	-200.000	-0.024	0.253
-588.923	-200.000	-0.019	-0.245
-587.909	-200.000	0.004	-0.070
-586.894	68.167	-0.163	-0.168
-585.879	262.788	-0.110	-0.193
-584.865	63.392	0.139	0.141
-583.850	24.413	-0.087	-0.072
-582.836	-190.196	-0.071	0.001
-581.821	-125.365	-0.251	-0.039
-580.806	800.000	-0.100	-0.422
-579.792	-187.380	0.551	-0.007
-578.777	-84.746	-0.178	-0.056
-577.763	-187.245	0.199	-0.003
-576.748	541.823	0.012	-0.029
-575.733	41.988	-0.069	-0.063
-574.719	-200.000	0.018	-0.128
-573.704	111.944	0.113	-0.137
-572.690	530.978	-0.037	0.088
-571.675	-14.716	-0.204	0.132
-570.661	-134.804	0.283	0.035
-569.646	-122.401	0.073	-0.012
-568.631	500.807	-0.134	0.310
-567.617	-31.810	0.104	0.059
-566.602	-142.542	0.271	0.027
-565.588	66.463	0.153	0.156
-564.573	-200.000	-0.035	-0.202
-563.558	-200.000	0.030	-0.154
-562.544	115.272	-0.150	0.184
-561.529	50.235	0.133	0.127
-560.515	-200.000	0.035	-0.366
-559.500	79.582	0.071	0.077
-558.485	-34.610	-0.272	-0.150
-557.471	-139.861	-0.167	0.018
-556.456	-50.983	0.274	-0.129
-555.442	-102.724	-0.185	0.044
-554.427	-158.028	0.257	0.015
-553.412	44.042	-0.192	-0.177
-552.398	-200.000	-0.056	0.000
-551.383	78.049	-0.118	0.126
-550.369	203.097	0.083	0.128
-549.354	800.000	0.051	0.208
-548.339	-22.596	-0.150	-0.091
-547.325	800.000	-0.066	-0.229
-546.310	-59.937	0.470	0.202
-545.296	7.214	0.284	0.213
-544.281	117.400	-0.114	-0.141
-543.266	-79.292	0.265	0.090
-542.252	-200.000	0.017	0.085
-541.237	-200.000	-0.070	0.360
-540.223	55.772	-0.078	0.076
-539.208	-200.000	0.048	0.231
-538.193	23.960	-0.034	0.028
-537.179	-66.860	0.266	0.106
-536.164	163.075	0.083	0.117
-535.150	-54.440	-0.211	-0.096
-534.135	-54.380	0.145	-0.066
-533.121	313.461	0.131	-0.248
-532.106	-92.093	-0.203	-0.058
-531.091	-42.958	-0.128	0.065
-530.077	-99.295	-0.235	0.059
-529.062	-122.182	0.203	-0.033
-528.048	93.577	0.052	0.059
-527.033	-69.508	0.111	0.043
-526.018	542.956	-0.042	-0.101
-525.004	800.000	0.065	0.217
-523.989	18.487	-0.425	0.341
-522.975	-130.102	0.237	0.032
-521.960	-59.261	0.425	0.184
-520.945	-200.000	0.083	-0.489
-519.931	-118.685	0.144	0.025
-518.916	-8.952	-0.522	0.351
-517.902	-112.219	-0.149	-0.030
-516.887	-26.283	-0.256	-0.151
-515.872	-36.765	-0.230	-0.124
-514.858	335.876	-0.195	-0.379
-513.843	111.414	-0.117	0.142
-512.829	-41.463	-0.219	-0.113
-511.814	18.181	-0.167	0.134
-510.799	-123.797	-0.231	0.037
-509.785	10.724	0.123	-0.094
-508.770	-200.000	0.086	0.410
-507.756	5.002	-0.017	0.013
-506.741	800.000	0.057	0.236
-505.726	23.811	0.152	-0.125
-504.712	472.721	-0.121	0.273
-503.697	-18.218	-0.054	0.034
-502.683	-101.356	-0.392	0.096
-501.668	16.895	-0.317	0.252
-500.653	-51.294	0.174	-0.082
-499.639	-134.379	0.113	0.014
-498.624	-94.558	-0.278	0.076
-497.610	-200.000	-0.038	-0.238
-496.595	-123.251	0.196	-0.031
-495.581	106.577	-0.119	0.142
-494.566	357.126	0.045	-0.089
-493.551	-95.692	0.159	0.043
-492.537	800.000	0.047	-0.140
-491.522	-119.799	0.120	-0.021
-490.508	800.000	0.015	0.043
-489.493	-64.197	-0.130	-0.053
-488.478	190.726	0.046	-0.069
-487.464	800.000	0.073	0.219
-486.449	233.447	0.085	0.141
-485.435	0.915	-0.029	0.021
-484.420	-86.724	0.231	-0.071
-483.405	-200.000	-0.016	-0.278
-482.391	-1.420	-0.154	-0.109
-481.376	-200.000	-0.020	0.122
-480.362	800.000	0.175	0.574
-479.347	-200.000	-0.002	0.080
-478.332	745.743	0.137	-0.370
-477.318	-0.447	0.163	0.116
-476.303	-94.660	-0.176	0.048
-475.289	-200.000	0.005	0.034
-474.274	134.568	-0.154	-0.200
-473.259	-136.679	-0.115	-0.013
-472.245	308.946	-0.129	0.242
-471.230	-200.000	0.054	-0.273
-470.216	-20.224	-0.069	0.043
-469.201	-156.838	0.288	-0.018
-468.186	133.284	-0.193	0.250
-467.172	-93.417	0.342	-0.095
-466.157	-200.000	-0.014	-0.145
-465.143	-130.107	0.081	-0.011
-464.128	-69.943	0.232	-0.088
-463.113	24.755	-0.189	0.157
-462.099	624.541	0.105	0.265
-461.084	122.375	0.205	-0.257
-460.070	24.404	0.175	0.145
-459.055	40.524	-0.259	-0.234
-458.040	139.429	-0.241	0.318
-457.026	-200.000	-0.011	0.460
-456.011	-60.683	0.140	0.060
-454.997	-21.362	-0.356	-0.218
-453.982	-162.846	-0.182	0.009
-452.968	-14.700	0.239	-0.154
-451.953	226.104	0.154	-0.250
-450.938	127.096	-0.122	0.155
-449.924	800.000	-0.085	0.326
-448.909	-200.000	0.010	0.191
-447.895	-114.297	-0.208	0.040
-446.880	-142.459	-0.336	-0.033
-445.865	40.029	-0.173	-0.156
-444.851	77.514	0.169	-0.180
-443.836	-200.000	0.066	-0.369
-442.822	138.628	-0.250	0.328
-441.807	16.586	-0.150	0.119
-440.792	800.000	0.069	0.192
-439.778	-200.000	-0.027	-0.314
-438.763	329.857	-0.089	0.172
-437.749	71.958	-0.202	0.211
-436.734	335.181	-0.115	0.222
-435.719	-200.000	0.009	-0.132
-434.705	800.000	0.032	-0.090
-433.690	247.199	0.147	-0.249
-432.676	-200.000	-0.006	-0.406
-431.661	-200.000	0.028	-0.195
-430.646	-27.085	0.049	-0.029
-429.632	177.027	0.131	-0.190
-428.617	-169.022	-0.313	-0.012
-427.603	-200.000	0.040	0.313
-426.588	-152.522	0.227	0.016
-425.573	-2.872	-0.018	-0.013
-424.559	-200.000	0.003	-0.278
-423.544	-64.877	0.161	-0.065
-422.530	800.000	-0.011	0.048
-421.515	800.000	-0.110	0.308
-420.500	-89.311	-0.195	0.058
-419.486	-47.434	-0.278	0.135
-418.471	252.104	-0.060	-0.102
-417.457	-200.000	-0.024	0.155
-416.442	137.071	0.174	0.228
-415.428	-200.000	0.013	-0.217
-414.413	149.634	-0.207	-0.281
-413.398	-200.000	0.070	-0.427
-412.384	147.778	-0.131	0.177
-411.369	-102.320	-0.205	0.049
-410.355	-200.000	-0.037	-0.238
-409.340	-200.000	0.033	-0.477
-408.325	-54.248	0.036	0.017
-407.311	435.879	-0.042	-0.091
-406.296	375.547	-0.073	-0.150
-405.282	181.637	0.209	0.308
-404.267	370.087	-0.134	0.271
-403.252	778.112	-0.073	0.201
-402.238	170.324	0.091	0.130
-401.223	462.649	-0.102	-0.228
-400.209	-200.000	0.028	0.336
-399.194	30.689	0.124	-0.106
-398.179	66.029	0.070	-0.071
-397.165	-102.246	-0.305	-0.073
-396.150	-200.000	0.040	0.299
-395.136	-200.000	0.049	0.327
-394.121	-76.637	0.239	-0.084
-393.106	598.786	0.032	-0.079
-392.092	19.914	-0.278	-0.224
-391.077	-200.000	-0.002	-0.041
-390.063	56.037	0.087	0.085
-389.048	-156.843	-0.144	0.009
-388.033	-0.912	0.170	-0.120
-387.019	800.000	-0.065	0.257
-386.004	-200.000	-0.069	-0.308
-384.990	-151.201	-0.108	-0.008
-383.975	-90.587	-0.340	0.098
-382.960	249.445	0.199	0.337
-381.946	-79.432	-0.303	-0.102
-380.931	103.397	-0.069	-0.081
-379.917	-142.295	0.246	0.024
-378.902	11.066	0.204	-0.156
-377.888	-54.726	-0.310	0.140
-376.873	361.998	-0.088	0.176
-375.858	96.744	0.292	-0.334
-374.844	-32.464	0.111	0.062
-373.829	166.424	0.117	0.165
-372.815	-150.787	-0.340	0.026
-371.800	-42.871	-0.374	0.190
-370.785	-72.501	0.414	-0.153
-369.771	-15.261	0.174	0.111
-368.756	-27.748	0.057	-0.033
-367.742	-112.072	0.341	-0.068
-366.727	69.720	-0.286	0.294
-365.712	-200.000	-0.003	-0.135
-364.698	-83.760	-0.114	-0.036
-363.683	281.397	-0.026	-0.046
-362.669	-54.325	0.055	-0.025
-361.654	-55.609	0.095	-0.042
-360.639	37.764	0.171	0.152
-359.625	-200.000	0.015	-0.315
-358.610	-118.681	0.047	0.008
-357.596	-94.934	-0.228	-0.061
-356.581	-58.192	0.259	-0.113
-355.566	-73.722	0.344	0.125
-354.552	-200.000	-0.015	-0.172
-353.537	-200.000	-0.018	-0.162
-352.523	-200.000	0.043	0.230
-351.508	-35.157	0.240	-0.131
-350.493	-25.507	-0.125	-0.074
-349.479	-37.393	0.160	0.085
-348.464	800.000	-0.056	0.159
-347.450	-196.619	-0.140	0.001
-346.435	-52.389	0.203	-0.094
-345.420	800.000	-0.064	-0.276
-344.406	-19.974	-0.218	-0.134
-343.391	238.164	0.108	0.179
-342.377	46.698	-0.243	0.225
-341.362	770.611	0.093	0.252
-340.348	-134.642	-0.277	0.034
-339.333	344.361	0.166	0.325
-338.318	-138.789	-0.140	-0.015
-337.304	516.653	-0.018	0.041
-336.289	1.700	-0.319	0.229
-335.275	-200.000	-0.036	0.186
-334.260	-43.030	-0.107	0.054
-333.245	-200.000	-0.019	0.132
-332.231	-200.000	0.007	0.036
-331.216	310.434	0.117	0.218
-330.202	166.562	-0.181	0.255
-329.187	230.916	-0.113	0.184
-328.172	-3.002	0.235	0.163
-327.158	-7.870	0.186	0.125
-326.143	16.093	0.358	0.281
-325.129	-185.683	-0.132	0.002
-324.114	21.942	-0.240	0.195
-323.099	15.632	-0.266	0.208
-322.085	800.000	0.105	-0.415
-321.070	136.275	0.113	-0.147
-320.056	558.848	-0.134	0.323
-319.041	800.000	-0.034	-0.128
-318.026	800.000	0.072	-0.296
-317.012	-200.000	-0.002	-0.163
-315.997	-109.286	0.277	0.058
-314.983	43.003	0.256	0.233
-313.968	-143.639	-0.086	0.008
-312.953	205.199	-0.075	0.116
-311.939	800.000	0.082	0.340
-310.924	-129.574	-0.201	-0.028
-309.910	-19.063	-0.290	-0.180
-308.895	-87.957	-0.314	-0.094
-307.880	117.104	-0.132	-0.162
-306.866	-200.000	-0.064	-0.292
-305.851	1.244	0.189	0.135
-304.837	-83.100	0.147	-0.047
-303.822	-11.289	0.171	-0.112
-302.807	251.214	-0.180	0.306
-301.793	-38.656	0.075	0.039
-300.778	272.617	0.059	-0.103
-299.764	-200.000	0.033	-0.369
-298.749	35.265	0.084	0.073
-297.735	-200.000	0.016	0.101
-296.720	-200.000	0.064	-0.314
-295.705	313.780	-0.117	0.219
-294.691	-100.000	-0.046	-0.011
-293.676	11.462	0.061	0.047
-292.662	65.554	-0.113	-0.114
-291.647	242.387	0.049	-0.081
-290.632	493.869	-0.071	-0.163
-289.618	-5.831	-0.118	-0.080
-288.603	14.594	0.111	0.086
-287.589	800.000	0.068	-0.195
-286.574	52.635	-0.199	-0.189
-285.559	201.249	0.093	-0.142
-284.545	121.531	0.140	0.174
-283.530	-73.463	-0.242	-0.088
-282.516	0.008	0.279	-0.198
-281.501	-28.778	-0.291	-0.167
-280.486	-12.366	0.136	-0.088
-279.472	-200.000	0.000	-0.077
-278.457	-9.767	-0.102	0.067
-277.443	-158.841	-0.059	0.003
-276.428	515.202	-0.109	-0.252
-275.413	514.394	0.045	-0.104
-274.399	12.431	0.100	-0.077
-273.384	-200.000	0.033	-0.170
-272.370	696.953	0.094	0.246
-271.355	132.299	-0.153	0.196
-270.340	-129.204	0.441	-0.061
-269.326	-200.000	0.009	0.057
-268.311	-78.432	0.239	0.081
-267.297	199.341	-0.182	-0.277
-266.282	581.647	-0.064	-0.157
-265.267	-114.369	-0.190	-0.036
-264.253	-200.000	-0.036	0.195
-263.238	43.929	0.211	0.192
-262.224	-184.933	-0.107	0.002
-261.209	-166.387	-0.190	-0.008
-260.195	319.593	0.118	0.223
-259.180	-65.855	-0.333	0.132
-258.165	-119.074	-0.323	-0.056
-257.151	-120.850	0.212	-0.036
-256.136	63.645	0.178	-0.177
-255.122	248.650	-0.047	0.080
-254.107	-122.250	-0.118	0.019
-253.092	800.000	-0.056	0.223
-252.078	-166.359	-0.159	-0.007
-251.063	178.200	-0.156	0.226
-250.049	-93.756	-0.176	-0.048
-249.034	-99.645	0.363	-0.090
-248.019	-169.044	0.081	0.003
-247.005	-148.789	0.330	0.027
-245.990	-55.952	-0.212	-0.094
-244.976	269.169	0.131	0.229
-243.961	-188.901	-0.115	0.001
-242.946	445.701	-0.059	0.129
-241.932	-34.435	-0.170	0.093
-240.917	-141.373	0.118	-0.012
-239.903	-67.828	0.376	0.146
-238.888	34.298	0.150	0.130
-237.873	-87.825	-0.092	-0.028
-236.859	800.000	-0.020	0.071
-235.844	416.245	-0.048	-0.101
-234.830	-80.313	0.369	0.122
-233.815	-60.077	0.149	0.063
-232.800	-3.147	0.255	0.177
-231.786	469.240	-0.052	0.116
-230.771	120.806	-0.123	0.152
-229.757	225.335	-0.096	0.154
-228.742	-200.000	0.022	0.184
-227.727	483.969	0.042	0.095
-226.713	206.408	-0.110	-0.170
-225.698	-58.502	-0.313	0.135
-224.684	-200.000	0.036	-0.166
-223.669	10.436	0.089	-0.067
-222.655	-107.681	0.159	0.035
-221.640	61.501	0.099	-0.097
-220.625	109.196	-0.158	-0.188
-219.611	206.299	-0.113	-0.174
-218.596	45.153	0.281	-0.257
-217.582	-54.390	-0.132	0.060
-216.567	-88.499	-0.046	-0.014
-215.552	523.657	0.063	-0.147
-214.538	345.545	0.113	0.221
-213.523	426.740	-0.146	0.313
-212.509	142.893	-0.091	0.121
-211.494	-106.155	0.464	0.103
-210.479	153.654	-0.121	-0.165
-209.465	800.000	-0.038	-0.118
-208.450	35.703	0.220	0.192
-207.436	14.281	-0.107	-0.083
-206.421	131.648	0.122	-0.155
-205.406	800.000	0.092	0.317
-204.392	-135.293	-0.157	-0.019
-203.377	-145.438	0.235	0.021
-202.363	56.170	0.020	0.019
-201.348	800.000	0.121	0.437
-200.333	-146.525	-0.184	0.016
-199.319	-82.740	-0.133	-0.043
-198.304	37.575	-0.134	-0.118
-197.290	-25.448	0.222	-0.130
-196.275	-80.589	0.340	0.112
-195.260	800.000	-0.043	0.142
-194.246	350.525	-0.134	-0.262
-193.231	580.365	0.130	-0.316
-192.217	800.000	0.054	0.189
-191.202	800.000	-0.064	-0.212
-190.187	-15.529	0.203	-0.128
-189.173	-17.477	0.031	-0.020
-188.158	38.351	0.181	0.160
-187.144	-111.253	-0.223	-0.045
-186.129	317.299	-0.008	0.016
-185.114	-46.048	0.050	-0.024
-184.100	351.847	-0.129	0.254
-183.085	-17.905	-0.183	-0.113
-182.071	-110.174	-0.164	0.034
-181.056	-135.060	-0.121	0.014
-180.042	-200.000	0.036	0.185
-179.027	76.809	-0.051	-0.054
-178.012	521.093	-0.139	-0.323
-176.998	53.180	-0.140	-0.133
-175.983	-20.585	0.075	-0.045
-174.969	-23.562	-0.081	0.048
-173.954	-200.000	0.006	0.225
-172.939	-200.000	-0.049	0.220
-171.925	-129.116	-0.167	-0.023
-170.910	119.706	-0.134	0.165
-169.896	27.463	0.019	-0.016
-168.881	81.559	-0.127	-0.136
-167.866	800.000	-0.043	-0.179
-166.852	599.853	0.084	0.206
-165.837	68.205	0.301	-0.305
-164.823	-14.626	0.278	-0.177
-163.808	-63.433	0.158	-0.064
-162.793	-200.000	-0.003	-0.053
-161.779	70.196	0.143	-0.146
-160.764	297.515	-0.037	-0.067
-159.750	-200.000	0.025	-0.121
-158.735	-149.454	0.190	0.015
-157.720	-170.641	-0.354	0.012
-156.706	34.661	0.126	0.109
-155.691	800.000	-0.014	-0.061
-154.677	-143.257	0.382	0.036
-153.662	-35.349	-0.130	-0.070
-152.647	33.662	-0.074	0.064
-151.633	-200.000	0.031	-0.140
-150.618	-33.013	0.249	-0.137
-149.604	-56.031	0.225	0.099
-148.589	800.000	-0.083	-0.247
-147.574	-200.000	-0.078	0.477
-146.560	-74.568	0.305	0.109
-145.545	-69.103	-0.284	-0.108
-144.531	-61.931	0.143	0.059
-143.516	366.660	-0.063	-0.126
-142.502	-135.906	0.498	0.058
-141.487	-149.729	-0.081	-0.006
-140.472	521.725	0.098	0.228
-139.458	41.935	-0.198	0.178
-138.443	-47.956	0.267	-0.128
-137.429	-200.000	0.007	-0.121
-136.414	800.000	-0.060	0.192
-135.399	-94.723	0.055	-0.015
-134.385	-24.930	0.299	0.175
-133.370	-83.868	-0.304	0.096
-132.356	-36.994	-0.085	-0.045
-131.341	-200.000	0.001	0.140
-130.326	-200.000	-0.029	-0.133
-129.312	51.805	-0.104	-0.098
-128.297	3.996	-0.089	0.064
-127.283	800.000	-0.015	-0.061
-126.268	-123.251	-0.226	-0.036
-125.253	-200.000	0.035	-0.281
-124.239	-23.823	0.300	-0.178
-123.224	-69.910	-0.336	0.127
-122.210	14.506	-0.250	0.193
-121.195	-30.186	0.312	0.175
