DTS Sentinel unit serial number:	SN413079Multiplexer serial number:	ORYXHardware model number:	OX4-SRSoftware version number:	ORYX F/W v4.00 Oryx Data Collector v3.7.2.0data status	okinstallation	princeton_trtdifferential loss correction	single-endedforward channel	channel 1reverse channel	N/Adate	2019/09/12time	23:18:35forward acquisition time	60.00reverse acquisition time	0.00gamma	496.2192k internal	0.2328k external	0.2328temperature offset calibration	1.0143default loss term (dB/km)	0.3790temperature slope calibration	1.0000multiplexer offset coefficient	1.0000multiplexer slope coefficient	1.0000fibre end	0.00T internal ref (°C)	29.12T ext. ref 1 (°C)	3.71T ext. ref 2 (°C)	23.68length (m)	temperature (°C)	Stokes	anti-Stokes-747.200	-8.901	-0.027	-0.018
-746.185	636.839	-0.178	0.455
-745.171	-86.581	0.317	0.098
-744.156	-82.913	0.247	0.080
-743.142	800.000	0.093	0.306
-742.127	-193.625	-0.121	-0.001
-741.112	84.235	0.104	0.114
-740.098	198.287	-0.163	0.250
-739.083	105.398	-0.085	0.101
-738.069	-45.782	0.153	0.076
-737.054	-108.747	-0.359	0.077
-736.039	-147.657	-0.442	0.037
-735.025	-59.678	0.096	-0.041
-734.010	290.079	-0.077	0.140
-732.996	158.253	-0.148	-0.207
-731.981	-163.443	-0.257	0.012
-730.966	-200.000	-0.015	-0.251
-729.952	-106.692	-0.225	0.050
-728.937	432.038	0.073	-0.160
-727.923	57.973	-0.177	-0.175
-726.908	-200.000	-0.020	0.167
-725.894	142.715	-0.241	-0.323
-724.879	-39.145	-0.317	-0.168
-723.864	800.000	-0.102	0.291
-722.850	-200.000	0.089	0.470
-721.835	-58.235	0.198	-0.087
-720.821	-62.707	-0.350	-0.146
-719.806	-79.422	-0.031	-0.010
-718.791	439.100	-0.134	-0.295
-717.777	-128.242	-0.158	0.023
-716.762	-19.068	-0.351	-0.220
-715.748	456.317	0.113	-0.253
-714.733	290.133	0.105	-0.191
-713.718	-37.371	-0.026	0.014
-712.704	800.000	0.086	-0.332
-711.689	-5.152	-0.271	0.187
-710.675	80.843	-0.217	-0.236
-709.660	-115.920	-0.175	0.033
-708.645	35.221	-0.283	0.250
-707.631	525.382	-0.099	-0.233
-706.616	-140.310	-0.174	0.018
-705.602	800.000	0.031	0.123
-704.587	93.836	0.124	-0.142
-703.572	67.529	-0.099	0.102
-702.558	596.067	0.079	-0.198
-701.543	800.000	-0.088	-0.378
-700.529	98.217	0.121	-0.140
-699.514	227.313	0.358	0.585
-698.499	53.547	0.036	-0.035
-697.485	68.864	-0.163	-0.169
-696.470	793.035	0.032	0.090
-695.456	-25.530	-0.137	0.082
-694.441	448.256	0.036	-0.079
-693.426	-101.205	-0.160	-0.039
-692.412	800.000	-0.006	0.021
-691.397	166.226	0.134	0.191
-690.383	-200.000	-0.050	-0.270
-689.368	-200.000	-0.023	-0.235
-688.354	-83.711	0.100	0.032
-687.339	290.114	-0.063	0.116
-686.324	54.712	0.105	0.101
-685.310	-101.127	0.151	0.037
-684.295	-147.952	-0.193	0.016
-683.281	113.397	-0.252	-0.307
-682.266	-46.818	-0.249	-0.123
-681.251	-149.783	0.352	-0.028
-680.237	-4.633	-0.148	-0.103
-679.222	800.000	-0.039	0.128
-678.208	800.000	0.068	-0.294
-677.193	122.680	-0.091	-0.114
-676.178	2.816	-0.195	-0.142
-675.164	-113.513	-0.226	0.044
-674.149	-143.069	-0.441	-0.043
-673.135	17.298	-0.187	-0.149
-672.120	428.357	-0.153	-0.332
-671.105	-117.619	-0.524	0.095
-670.091	93.121	-0.090	-0.102
-669.076	-102.140	0.016	0.004
-668.062	116.556	0.179	-0.220
-667.047	-200.000	-0.007	-0.100
-666.032	-144.053	0.483	0.046
-665.018	222.384	0.088	-0.142
-664.003	54.157	0.152	0.147
-662.989	-200.000	0.037	0.194
-661.974	139.123	-0.143	-0.189
-660.959	-94.545	-0.079	0.022
-659.945	48.080	-0.160	0.150
-658.930	800.000	-0.125	-0.468
-657.916	-149.613	-0.313	-0.025
-656.901	-200.000	-0.051	0.256
-655.886	-44.162	0.307	0.155
-654.872	-200.000	-0.012	0.221
-653.857	-200.000	0.026	-0.371
-652.843	-42.060	-0.215	-0.111
-651.828	-200.000	-0.049	-0.215
-650.814	2.952	-0.028	-0.021
-649.799	121.305	-0.129	0.162
-648.784	15.793	-0.169	-0.133
-647.770	159.902	-0.130	-0.182
-646.755	-200.000	0.055	-0.314
-645.741	185.107	0.092	-0.137
-644.726	411.364	-0.176	-0.375
-643.711	-200.000	0.042	-0.206
-642.697	-18.864	0.111	-0.069
-641.682	-2.270	-0.121	0.085
-640.668	533.376	0.028	-0.066
-639.653	800.000	0.047	-0.201
-638.638	-104.545	-0.119	-0.028
-637.624	-78.164	0.177	0.061
-636.609	372.752	0.095	-0.193
-635.595	800.000	-0.103	-0.290
-634.580	-119.337	0.191	0.033
-633.565	800.000	0.008	-0.024
-632.551	-12.737	-0.158	0.103
-631.536	83.740	-0.040	-0.043
-630.522	206.377	0.032	0.050
-629.507	-107.809	0.072	0.016
-628.492	526.972	0.101	-0.239
-627.478	262.718	0.062	-0.108
-626.463	372.508	-0.061	0.124
-625.449	-8.522	0.097	0.065
-624.434	121.120	-0.033	0.041
-623.419	-53.318	-0.150	0.069
-622.405	-36.593	0.300	0.162
-621.390	-200.000	-0.022	-0.271
-620.376	166.405	0.235	0.333
-619.361	-107.521	-0.156	-0.034
-618.346	176.149	-0.080	-0.116
-617.332	31.649	0.159	-0.138
-616.317	-9.356	0.099	0.066
-615.303	456.716	-0.119	-0.264
-614.288	268.954	-0.105	-0.185
-613.273	-200.000	0.030	0.235
-612.259	800.000	0.047	-0.141
-611.244	294.552	-0.120	-0.220
-610.230	-23.080	0.173	0.104
-609.215	104.035	-0.132	0.155
-608.201	56.730	0.212	0.207
-607.186	-194.156	0.174	0.001
-606.171	-200.000	-0.034	0.215
-605.157	-144.666	0.293	-0.027
-604.142	-200.000	0.016	0.247
-603.128	-200.000	-0.002	0.140
-602.113	-200.000	-0.008	-0.445
-601.098	-200.000	-0.028	0.279
-600.084	-152.589	-0.207	-0.015
-599.069	5.857	-0.261	-0.193
-598.055	-69.225	0.116	-0.045
-597.040	-146.790	0.224	-0.019
-596.025	366.503	0.184	0.372
-595.011	-147.358	-0.200	0.017
-593.996	411.450	0.139	-0.295
-592.982	185.529	-0.204	-0.303
-591.967	-65.413	0.037	-0.015
-590.952	-200.000	-0.009	0.057
-589.938	-200.000	-0.025	0.213
-588.923	800.000	0.041	0.137
-587.909	-200.000	0.007	0.093
-586.894	13.375	0.176	0.136
-585.879	-129.897	-0.520	0.071
-584.865	-81.471	0.359	0.118
-583.850	-92.892	-0.085	-0.024
-582.836	316.071	-0.013	0.025
-581.821	800.000	-0.151	0.445
-580.806	99.067	-0.096	-0.111
-579.792	-164.025	-0.316	0.015
-578.777	297.248	-0.091	0.168
-577.763	-200.000	0.006	-0.299
-576.748	-200.000	0.024	0.276
-575.733	-193.327	0.238	-0.002
-574.719	20.649	0.094	-0.076
-573.704	123.035	-0.070	-0.088
-572.690	800.000	0.101	-0.304
-571.675	800.000	-0.058	0.166
-570.661	-64.863	0.174	-0.070
-569.646	-137.197	-0.297	0.034
-568.631	25.953	0.173	0.144
-567.617	-200.000	-0.008	-0.314
-566.602	-61.155	-0.188	0.079
-565.588	72.822	-0.133	-0.139
-564.573	-120.267	-0.465	0.079
-563.558	-53.500	-0.029	0.014
-562.544	800.000	-0.063	0.259
-561.529	5.005	-0.118	0.087
-560.515	800.000	0.061	-0.189
-559.500	-90.467	-0.226	0.066
-558.485	-17.712	0.396	-0.249
-557.471	-94.839	-0.186	0.050
-556.456	16.177	0.040	0.032
-555.442	-85.567	0.195	0.061
-554.427	-11.597	-0.378	0.248
-553.412	33.385	-0.205	-0.178
-552.398	393.574	-0.073	0.152
-551.383	-200.000	-0.033	-0.213
-550.369	74.887	0.195	0.205
-549.354	296.610	0.044	0.080
-548.339	-113.795	0.093	0.018
-547.325	800.000	0.009	0.036
-546.310	-86.063	0.226	-0.070
-545.296	4.153	0.202	0.148
-544.281	29.533	0.176	0.150
-543.266	217.275	0.042	0.067
-542.252	-59.807	-0.304	0.130
-541.237	-200.000	0.008	-0.123
-540.223	-71.652	-0.122	0.046
-539.208	-93.820	-0.316	-0.087
-538.193	225.819	-0.273	-0.442
-537.179	261.374	0.105	-0.182
-536.164	-150.556	-0.096	-0.007
-535.150	-174.477	-0.150	-0.004
-534.135	-112.848	0.108	0.021
-533.121	-200.000	0.013	0.068
-532.106	46.388	0.211	0.196
-531.091	-31.815	-0.333	-0.186
-530.077	244.582	0.144	-0.241
-529.062	-170.188	0.147	0.005
-528.048	-4.423	0.097	-0.067
-527.033	-41.108	-0.188	-0.097
-526.018	492.526	0.253	-0.580
-525.004	264.595	0.113	-0.196
-523.989	-200.000	-0.042	-0.361
-522.975	57.671	-0.113	-0.110
-521.960	-150.927	0.068	0.005
-520.945	800.000	-0.045	-0.126
-519.931	-60.725	-0.224	-0.095
-518.916	-80.807	-0.232	-0.077
-517.902	-200.000	0.026	0.213
-516.887	-113.316	0.376	-0.074
-515.872	-200.000	-0.020	-0.171
-514.858	239.157	-0.076	-0.126
-513.843	41.470	-0.090	0.082
-512.829	-112.567	-0.324	0.065
-511.814	-200.000	0.003	0.211
-510.799	-4.139	0.018	-0.013
-509.785	232.440	-0.214	-0.350
-508.770	-132.265	0.131	-0.017
-507.756	-89.619	0.272	-0.080
-506.741	459.317	-0.110	-0.245
-505.726	-56.731	-0.122	0.054
-504.712	-146.388	0.245	-0.021
-503.697	-200.000	0.015	0.069
-502.683	-49.875	0.155	0.073
-501.668	-187.244	0.212	-0.003
-500.653	-200.000	0.008	-0.114
-499.639	-200.000	0.006	-0.317
-498.624	-54.685	-0.100	0.045
-497.610	-156.492	-0.403	0.025
-496.595	-200.000	0.049	0.300
-495.581	176.394	-0.018	-0.025
-494.566	38.378	0.318	0.283
-493.551	-200.000	-0.003	0.098
-492.537	-106.671	-0.060	-0.013
-491.522	188.770	-0.047	0.071
-490.508	-56.325	-0.077	0.034
-489.493	-97.836	0.074	0.019
-488.478	-118.294	-0.187	0.033
-487.464	-5.296	0.069	-0.047
-486.449	-12.767	0.268	-0.174
-485.435	177.386	-0.051	0.074
-484.420	-137.001	0.108	0.012
-483.405	-200.000	0.007	0.152
-482.391	90.477	-0.229	0.256
-481.376	-200.000	-0.047	0.207
-480.362	-104.773	-0.208	-0.048
-479.347	32.218	0.094	-0.081
-478.332	59.858	0.200	0.197
-477.318	55.785	-0.035	-0.034
-476.303	-200.000	-0.061	-0.459
-475.289	-132.381	0.505	0.065
-474.274	-200.000	-0.043	-0.213
-473.259	-96.900	0.126	-0.033
-472.245	800.000	-0.055	-0.159
-471.230	18.481	0.176	0.140
-470.216	8.827	0.083	-0.062
-469.201	-83.678	0.046	0.015
-468.186	-116.677	-0.338	-0.062
-467.172	-174.071	-0.281	-0.008
-466.157	-116.447	0.135	0.025
-465.143	12.569	0.222	-0.171
-464.128	-200.000	0.070	-0.363
-463.113	43.836	0.214	-0.195
-462.099	-200.000	0.008	-0.167
-461.084	25.054	-0.066	-0.055
-460.070	-95.814	0.272	0.072
-459.055	800.000	-0.010	0.035
-458.040	84.430	0.121	0.132
-457.026	-18.680	-0.072	0.045
-456.011	75.593	0.163	-0.172
-454.997	800.000	0.065	-0.235
-453.982	-98.898	-0.263	0.067
-452.968	-164.914	-0.379	0.017
-451.953	-200.000	-0.106	-0.500
-450.938	-93.726	0.111	0.030
-449.924	-5.588	-0.071	-0.049
-448.909	-164.495	0.104	0.005
-447.895	12.429	0.087	-0.067
-446.880	6.166	-0.075	0.055
-445.865	-101.236	-0.123	0.030
-444.851	250.945	-0.065	0.110
-443.836	251.664	-0.132	0.223
-442.822	-162.810	0.246	0.012
-441.807	-95.337	-0.099	-0.026
-440.792	-1.756	0.151	0.106
-439.778	800.000	-0.064	-0.210
-438.763	135.965	-0.250	-0.325
-437.749	310.267	-0.089	0.165
-436.734	-158.022	-0.287	-0.017
-435.719	-44.157	-0.160	0.080
-434.705	301.961	-0.078	0.144
-433.690	-200.000	-0.019	-0.264
-432.676	-91.851	0.247	0.070
-431.661	-200.000	0.133	0.000
-430.646	65.748	0.245	-0.247
-429.632	77.900	-0.166	0.176
-428.617	31.537	-0.209	0.179
-427.603	-83.740	-0.263	-0.083
-426.588	800.000	-0.022	-0.068
-425.573	174.050	0.028	0.040
-424.559	-146.846	-0.444	0.038
-423.544	48.715	-0.193	0.180
-422.530	109.281	-0.348	-0.415
-421.515	-200.000	0.035	-0.372
-420.500	-59.744	-0.259	-0.111
-419.486	-64.799	-0.020	-0.008
-418.471	-75.549	0.335	-0.119
-417.457	800.000	0.046	-0.174
-416.442	-5.266	0.185	0.126
-415.428	667.683	0.096	-0.248
-414.413	-54.862	-0.258	0.116
-413.398	800.000	0.058	0.192
-412.384	-200.000	-0.009	0.044
-411.369	-200.000	0.041	0.204
-410.355	800.000	0.072	-0.218
-409.340	-19.635	-0.362	0.223
-408.325	-67.180	-0.217	0.085
-407.311	0.652	0.376	0.268
-406.296	465.198	-0.158	0.352
-405.282	-51.129	-0.116	0.054
-404.267	-200.000	0.007	0.211
-403.252	560.817	-0.063	0.152
-402.238	-116.601	-0.243	-0.044
-401.223	76.176	0.149	-0.156
-400.209	115.122	-0.252	0.306
-399.194	-200.000	-0.009	-0.041
-398.179	210.226	0.069	-0.107
-397.165	-38.800	0.121	-0.064
-396.150	-147.166	-0.171	0.014
-395.136	-145.411	0.066	0.006
-394.121	-108.937	0.297	-0.063
-393.106	-200.000	-0.026	0.202
-392.092	41.571	-0.142	-0.128
-391.077	800.000	0.096	-0.306
-390.063	-200.000	-0.011	-0.077
-389.048	-63.389	0.222	-0.091
-388.033	-200.000	0.018	-0.115
-387.019	352.571	0.089	-0.175
-386.004	-194.559	0.157	-0.001
-384.990	-71.510	0.389	-0.145
-383.975	15.346	-0.233	0.182
-382.960	800.000	-0.125	-0.426
-381.946	328.024	-0.073	0.139
-380.931	-113.235	-0.090	-0.018
-379.917	-200.000	-0.007	0.071
-378.902	76.612	0.254	-0.268
-377.888	800.000	0.034	-0.140
-376.873	-97.567	-0.157	0.040
-375.858	-200.000	0.029	0.177
-374.844	-200.000	-0.041	-0.181
-373.829	218.685	-0.106	-0.168
-372.815	65.638	-0.256	-0.258
-371.800	36.688	0.227	0.199
-370.785	64.178	0.121	-0.121
-369.771	-64.513	0.240	0.097
-368.756	47.992	-0.171	-0.158
-367.742	-180.265	-0.226	0.005
-366.727	800.000	0.082	-0.272
-365.712	-85.649	-0.213	-0.066
-364.698	-135.043	-0.414	0.050
-363.683	-200.000	-0.002	-0.285
-362.669	-184.602	0.464	-0.007
-361.654	-200.000	-0.041	0.494
-360.639	-200.000	0.006	0.130
-359.625	-85.611	-0.114	-0.035
-358.610	71.982	-0.182	-0.188
-357.596	-162.094	0.117	-0.006
-356.581	333.894	-0.038	0.073
-355.566	-139.322	-0.258	0.028
-354.552	-200.000	0.038	0.168
-353.537	23.884	-0.176	-0.144
-352.523	-83.588	-0.419	-0.133
-351.508	149.868	-0.155	0.208
-350.493	138.920	0.157	0.205
-349.479	800.000	0.020	-0.063
-348.464	-5.363	0.127	-0.087
-347.450	84.359	0.179	-0.194
-346.435	-200.000	-0.008	-0.342
-345.420	496.482	0.108	0.247
-344.406	19.485	0.184	0.147
-343.391	-14.261	-0.181	0.115
-342.377	-61.028	0.176	0.074
-341.362	-96.762	0.009	-0.002
-340.348	800.000	-0.101	0.351
-339.333	-35.792	0.102	0.055
-338.318	-200.000	0.068	0.402
-337.304	102.534	-0.116	-0.135
-336.289	-99.827	-0.056	0.014
-335.275	211.677	0.112	-0.175
-334.260	-200.000	-0.029	0.133
-333.245	-65.484	0.200	-0.080
-332.231	-171.226	-0.115	0.004
-331.216	-164.865	0.068	-0.003
-330.202	-119.798	0.234	-0.040
-329.187	800.000	-0.082	-0.241
-328.172	37.735	-0.136	-0.120
-327.158	336.060	0.199	0.383
-326.143	-44.537	0.060	0.030
-325.129	800.000	-0.078	0.330
-324.114	-144.167	-0.141	-0.013
-323.099	61.703	0.131	-0.129
-322.085	-138.512	-0.297	0.032
-321.070	-121.019	0.191	-0.032
-320.056	-46.495	0.434	0.211
-319.041	-200.000	0.012	0.192
-318.026	466.290	0.109	-0.242
-317.012	800.000	0.072	-0.221
-315.997	-80.341	0.074	-0.025
-314.983	-33.596	0.197	0.108
-313.968	200.092	0.300	0.457
-312.953	26.821	-0.091	0.076
-311.939	800.000	0.052	0.172
-310.924	333.370	-0.035	-0.067
-309.910	-200.000	0.050	0.230
-308.895	-200.000	-0.022	0.194
-307.880	82.816	-0.163	0.175
-306.866	52.843	0.147	0.139
-305.851	128.237	-0.099	-0.124
-304.837	-94.927	0.163	0.044
-303.822	43.473	-0.238	0.216
-302.807	-50.949	-0.253	-0.118
-301.793	-9.531	0.107	0.071
-300.778	176.383	-0.137	0.197
-299.764	282.748	0.087	-0.155
-298.749	-200.000	0.043	0.229
-297.735	-85.619	-0.213	0.065
-296.720	-200.000	0.027	-0.189
-295.705	800.000	0.083	-0.258
-294.691	800.000	-0.029	-0.090
-293.676	-100.969	0.185	0.045
-292.662	239.759	0.092	-0.152
-291.647	-63.907	-0.015	0.006
-290.632	-85.376	0.161	-0.050
-289.618	13.472	0.053	-0.041
-288.603	-52.259	0.303	-0.139
-287.589	50.703	0.181	0.169
-286.574	-58.885	-0.420	0.180
-285.559	-200.000	-0.026	-0.137
-284.545	153.789	-0.233	-0.316
-283.530	305.194	-0.052	0.095
-282.516	429.380	-0.120	0.257
-281.501	-10.458	0.295	-0.194
-280.486	10.056	-0.229	0.172
-279.472	598.457	-0.073	-0.179
-278.457	800.000	-0.127	0.470
-277.443	-128.900	-0.252	-0.035
-276.428	403.332	-0.075	0.156
-275.413	800.000	-0.060	0.182
-274.399	-7.035	0.042	-0.028
-273.384	-17.195	0.167	-0.104
-272.370	-111.302	0.143	-0.029
-271.355	123.477	-0.180	0.223
-270.340	-200.000	-0.014	0.123
-269.326	-58.268	0.286	-0.123
-268.311	-200.000	-0.058	-0.305
-267.297	411.264	-0.012	0.024
-266.282	25.127	0.278	0.228
-265.267	-30.665	-0.139	-0.078
-264.253	-128.943	0.170	0.024
-263.238	-73.277	-0.113	-0.041
-262.224	62.888	0.162	0.160
-261.209	11.173	0.303	0.229
-260.195	800.000	0.225	0.776
-259.180	-108.671	0.484	0.103
-258.165	5.259	0.088	-0.064
-257.151	247.113	-0.166	0.277
-256.136	-59.519	-0.229	-0.097
-255.122	131.388	0.022	0.028
-254.107	4.300	-0.140	0.102
-253.092	800.000	-0.042	0.169
-252.078	150.682	-0.180	-0.241
-251.063	800.000	-0.069	-0.246
-250.049	224.556	-0.058	-0.093
-249.034	289.196	-0.017	-0.031
-248.019	-200.000	0.004	-0.050
-247.005	260.831	0.082	0.141
-245.990	-108.105	0.053	0.011
-244.976	-119.162	0.223	0.038
-243.961	223.920	0.021	-0.034
-242.946	-200.000	-0.010	0.078
-241.932	-41.891	-0.074	-0.038
-240.917	620.870	-0.089	0.220
-239.903	296.828	-0.052	-0.093
-238.888	-178.643	0.124	0.003
-237.873	102.600	0.225	-0.260
-236.859	148.847	-0.175	-0.234
-235.844	75.777	-0.078	-0.081
-234.830	158.968	-0.147	0.201
-233.815	58.836	-0.137	-0.133
-232.800	151.930	-0.053	-0.071
-231.786	-75.132	-0.070	-0.025
-230.771	-107.448	0.303	-0.066
-229.757	-83.791	-0.259	0.081
-228.742	-55.704	-0.054	0.024
-227.727	-61.786	0.179	0.074
-226.713	-68.216	-0.129	-0.049
-225.698	124.270	-0.281	0.349
-224.684	-148.398	0.222	-0.018
-223.669	-164.329	0.202	0.009
-222.655	-100.753	0.095	-0.023
-221.640	-120.046	-0.180	-0.030
-220.625	15.924	0.174	-0.135
-219.611	800.000	0.029	0.086
-218.596	-130.862	0.211	-0.028
-217.582	121.211	0.164	-0.201
-216.567	800.000	0.049	0.186
-215.552	-200.000	-0.055	-0.302
-214.538	91.204	0.070	0.077
-213.523	-179.798	-0.403	0.009
-212.509	-200.000	0.002	-0.089
-211.494	-61.288	-0.148	-0.062
-210.479	800.000	-0.051	0.168
-209.465	-131.025	0.073	0.010
-208.450	-60.992	0.128	-0.053
-207.436	-200.000	0.046	0.202
-206.421	800.000	0.065	-0.181
-205.406	103.056	0.179	-0.207
-204.392	137.761	-0.089	0.115
-203.377	279.927	0.139	0.245
-202.363	621.244	0.113	0.281
-201.348	-54.527	0.168	0.075
-200.333	147.752	0.188	0.251
-199.319	52.396	0.156	-0.147
-198.304	-22.559	0.318	0.190
-197.290	800.000	0.025	-0.095
-196.275	-171.522	-0.326	0.011
-195.260	-200.000	-0.032	-0.180
-194.246	-74.816	-0.234	0.083
-193.231	800.000	-0.094	-0.380
-192.217	-124.022	0.351	0.054
-191.202	-6.787	0.245	0.165
-190.187	-53.529	-0.255	0.115
-189.173	295.665	-0.095	-0.171
-188.158	664.098	-0.097	0.248
-187.144	-38.100	-0.069	-0.036
-186.129	-200.000	0.025	-0.151
-185.114	-66.231	0.129	-0.051
-184.100	141.901	-0.057	-0.075
-183.085	-139.301	-0.092	0.010
-182.071	-140.906	-0.284	0.029
-181.056	755.814	-0.110	0.293
-180.042	184.372	0.097	0.142
-179.027	-166.382	0.378	-0.016
-178.012	-66.498	0.140	0.055
-176.998	-165.257	-0.254	-0.011
-175.983	-31.934	-0.184	0.102
-174.969	800.000	0.043	0.120
-173.954	39.032	0.103	-0.091
-172.939	-63.222	0.201	-0.082
-171.925	800.000	-0.066	0.224
-170.910	800.000	-0.031	0.086
-169.896	-136.003	-0.326	-0.038
-168.881	-200.000	-0.012	0.108
-167.866	232.847	-0.178	0.288
-166.852	-73.227	0.130	0.047
-165.837	62.495	0.297	0.293
-164.823	-44.212	0.121	0.060
-163.808	44.537	0.079	0.072
-162.793	596.428	-0.090	-0.219
-161.779	433.897	-0.109	0.234
-160.764	-200.000	-0.007	0.067
-159.750	-197.837	-0.251	-0.001
-158.735	-200.000	0.053	0.533
-157.720	-78.523	0.229	0.077
-156.706	-167.536	0.183	-0.007
-155.691	209.871	0.151	0.233
-154.677	105.735	0.163	-0.189
-153.662	-200.000	-0.007	-0.111
-152.647	63.313	0.182	-0.180
-151.633	415.547	-0.069	-0.144
-150.618	-14.435	0.099	0.063
-149.604	800.000	0.057	0.232
-148.589	349.062	0.153	-0.297
-147.574	362.507	-0.089	-0.177
-146.560	800.000	0.069	-0.278
-145.545	331.575	-0.009	-0.017
-144.531	-200.000	0.009	0.098
-143.516	-95.277	0.053	0.014
-142.502	-200.000	-0.066	0.326
-141.487	-11.304	0.261	0.169
-140.472	62.530	-0.041	0.040
-139.458	-200.000	0.006	0.029
-138.443	-184.191	0.215	0.004
-137.429	25.284	-0.341	0.279
-136.414	-109.728	0.298	0.062
-135.399	-94.051	-0.556	0.150
-134.385	249.336	0.140	-0.233
-133.370	-37.599	-0.349	0.183
-132.356	208.203	-0.250	0.385
-131.341	44.283	0.119	0.107
-130.326	14.242	-0.268	-0.206
-129.312	-200.000	-0.018	0.094
-128.297	251.535	0.187	-0.314
-127.283	48.988	-0.083	0.077
-126.268	-156.946	0.361	0.022
-125.253	-200.000	0.007	-0.227
-124.239	-150.647	-0.132	0.010
-123.224	347.099	-0.223	0.432
-122.210	125.473	0.137	0.170
-121.195	-86.815	-0.290	-0.087
