DTS Sentinel unit serial number:	SN413079Multiplexer serial number:	ORYXHardware model number:	OX4-SRSoftware version number:	ORYX F/W v4.00 Oryx Data Collector v3.7.2.0data status	okinstallation	princeton_trtdifferential loss correction	single-endedforward channel	channel 1reverse channel	N/Adate	2019/09/15time	17:06:35forward acquisition time	60.00reverse acquisition time	0.00gamma	496.2192k internal	0.2291k external	0.2291temperature offset calibration	0.9938default loss term (dB/km)	0.3790temperature slope calibration	1.0000multiplexer offset coefficient	1.0000multiplexer slope coefficient	1.0000fibre end	0.00T internal ref (°C)	44.56T ext. ref 1 (°C)	5.92T ext. ref 2 (°C)	40.43length (m)	temperature (°C)	Stokes	anti-Stokes-747.200	-200.000	-0.005	0.095
-746.185	89.185	-0.066	0.076
-745.171	38.923	0.112	0.102
-744.156	-200.000	-0.035	0.290
-743.142	-85.619	-0.189	-0.060
-742.127	-195.818	-0.210	0.002
-741.112	-111.164	-0.367	0.077
-740.098	-61.395	-0.271	-0.117
-739.083	-51.995	-0.183	-0.087
-738.069	800.000	-0.123	0.389
-737.054	-200.000	-0.020	0.186
-736.039	-122.390	0.109	0.018
-735.025	53.675	0.198	0.195
-734.010	142.637	0.131	-0.178
-732.996	291.156	-0.037	-0.068
-731.981	-3.946	0.112	-0.080
-730.966	-159.916	0.321	-0.018
-729.952	38.068	-0.050	0.046
-728.937	-149.864	0.279	-0.022
-727.923	-200.000	-0.067	-0.347
-726.908	800.000	0.087	-0.322
-725.894	-138.870	-0.376	-0.042
-724.879	-103.363	-0.406	-0.098
-723.864	-43.487	-0.402	-0.208
-722.850	25.855	0.157	-0.134
-721.835	195.361	-0.228	0.355
-720.821	-78.449	0.141	-0.050
-719.806	-200.000	0.024	-0.225
-718.791	22.573	0.128	-0.107
-717.777	235.323	-0.153	-0.258
-716.762	283.875	0.258	-0.475
-715.748	800.000	0.014	-0.046
-714.733	-115.382	-0.101	-0.020
-713.718	-200.000	0.014	-0.103
-712.704	427.365	0.149	0.328
-711.689	-200.000	-0.041	0.265
-710.675	-63.208	-0.158	-0.067
-709.660	-19.554	0.327	0.207
-708.645	-117.131	0.230	-0.043
-707.631	-133.372	-0.313	0.040
-706.616	-93.121	0.051	-0.014
-705.602	-107.675	0.142	-0.032
-704.587	-200.000	-0.011	-0.198
-703.572	-88.374	-0.276	0.084
-702.558	7.030	-0.103	0.079
-701.543	-41.361	0.129	0.068
-700.529	-33.625	0.009	0.005
-699.514	-68.384	0.066	-0.026
-698.499	800.000	0.040	-0.159
-697.485	108.485	-0.181	-0.221
-696.470	800.000	0.116	-0.456
-695.456	-57.776	-0.124	-0.056
-694.441	169.393	-0.238	-0.347
-693.426	140.534	-0.131	0.177
-692.412	616.161	0.046	-0.117
-691.397	28.411	0.270	-0.234
-690.383	216.905	-0.055	-0.089
-689.368	-200.000	-0.029	-0.151
-688.354	800.000	0.085	0.249
-687.339	308.646	-0.060	0.114
-686.324	-82.551	-0.188	-0.062
-685.310	800.000	-0.029	-0.084
-684.295	-200.000	0.020	-0.118
-683.281	448.424	0.196	0.441
-682.266	-174.105	-0.235	-0.007
-681.251	-69.413	-0.107	0.042
-680.237	-80.040	0.127	-0.044
-679.222	-200.000	-0.032	0.281
-678.208	231.827	0.092	-0.154
-677.193	-112.084	-0.353	-0.072
-676.178	800.000	0.087	-0.378
-675.164	-200.000	0.002	-0.346
-674.149	800.000	-0.031	-0.102
-673.135	46.711	-0.179	0.170
-672.120	69.210	-0.134	0.141
-671.105	-119.309	0.087	-0.016
-670.091	-200.000	0.004	0.107
-669.076	-111.766	0.087	0.018
-668.062	800.000	-0.071	0.209
-667.047	-200.000	-0.007	-0.258
-666.032	800.000	0.121	-0.369
-665.018	-107.536	0.281	0.063
-664.003	-39.121	0.086	0.046
-662.989	-1.990	0.145	-0.104
-661.974	191.374	-0.191	-0.293
-660.959	460.145	0.098	0.223
-659.945	406.116	-0.051	0.111
-658.930	-6.490	0.298	0.207
-657.916	-78.031	-0.102	-0.036
-656.901	-67.823	0.311	0.124
-655.886	37.895	0.238	0.216
-654.872	194.932	0.048	-0.075
-653.857	-58.754	0.246	-0.109
-652.843	43.192	0.275	-0.256
-651.828	800.000	-0.054	-0.164
-650.814	-28.607	0.198	-0.116
-649.799	800.000	-0.076	-0.286
-648.784	83.784	0.104	-0.116
-647.770	8.556	0.229	0.176
-646.755	95.015	-0.120	-0.139
-645.741	653.673	0.080	-0.209
-644.726	130.468	0.127	-0.166
-643.711	-1.248	0.152	-0.109
-642.697	-22.741	0.061	-0.037
-641.682	79.629	-0.160	0.176
-640.668	-200.000	-0.001	0.117
-639.653	-86.806	-0.259	-0.081
-638.638	183.315	0.190	0.287
-637.624	248.395	0.029	-0.051
-636.609	-200.000	-0.008	-0.229
-635.595	307.778	-0.091	-0.173
-634.580	169.663	-0.186	-0.271
-633.565	800.000	0.042	0.131
-632.551	66.625	-0.056	-0.058
-631.536	-35.632	-0.083	-0.046
-630.522	-37.764	0.003	-0.002
-629.507	29.756	-0.170	0.147
-628.492	54.219	0.118	0.116
-627.478	742.209	-0.095	-0.261
-626.463	-73.445	-0.129	-0.048
-625.449	378.649	-0.119	0.249
-624.434	-46.998	-0.061	0.030
-623.419	102.781	-0.279	0.333
-622.405	-14.766	-0.184	-0.120
-621.390	459.683	0.179	-0.406
-620.376	464.259	0.059	-0.134
-619.361	290.841	0.022	0.041
-618.346	47.281	-0.173	0.164
-617.332	-137.178	0.085	-0.010
-616.317	-0.836	-0.116	-0.084
-615.303	222.023	-0.096	-0.157
-614.288	-54.982	-0.148	-0.068
-613.273	800.000	0.039	-0.126
-612.259	800.000	0.052	0.198
-611.244	-200.000	-0.021	0.172
-610.230	145.582	0.089	0.122
-609.215	176.121	-0.062	0.091
-608.201	56.190	-0.111	-0.109
-607.186	-140.313	0.090	0.010
-606.171	-172.376	-0.447	-0.015
-605.157	-85.281	-0.341	0.108
-604.142	2.324	-0.216	-0.159
-603.128	-84.429	-0.304	-0.098
-602.113	800.000	-0.047	-0.205
-601.098	0.382	0.143	0.104
-600.084	208.651	0.057	-0.090
-599.069	477.242	-0.050	0.115
-598.055	-200.000	-0.053	0.334
-597.040	289.755	0.110	0.203
-596.025	-64.102	-0.111	0.046
-595.011	168.099	-0.115	0.167
-593.996	72.107	0.020	0.021
-592.982	-38.746	0.254	-0.136
-591.967	-200.000	0.032	-0.172
-590.952	-18.330	0.293	0.186
-589.938	-113.437	-0.358	-0.071
-588.923	137.657	0.076	0.102
-587.909	-60.548	-0.326	-0.141
-586.894	0.470	-0.150	-0.109
-585.879	-3.317	0.355	-0.251
-584.865	-3.083	-0.192	0.137
-583.850	-152.403	-0.407	0.030
-582.836	-200.000	0.003	-0.342
-581.821	4.919	0.246	0.184
-580.806	-80.661	-0.394	-0.133
-579.792	-128.793	0.131	-0.019
-578.777	253.151	-0.072	0.124
-577.763	-200.000	-0.021	0.170
-576.748	-200.000	-0.045	-0.348
-575.733	-148.319	0.299	-0.025
-574.719	-53.528	0.041	-0.019
-573.704	800.000	-0.015	-0.046
-572.690	-200.000	-0.065	-0.302
-571.675	-200.000	0.011	0.053
-570.661	-64.276	-0.277	0.115
-569.646	-27.995	0.305	-0.180
-568.631	421.453	0.046	0.100
-567.617	-27.573	0.042	-0.025
-566.602	51.144	-0.019	0.018
-565.588	68.385	-0.049	0.051
-564.573	-68.260	-0.321	0.127
-563.558	-87.369	0.108	-0.033
-562.544	81.382	-0.130	-0.143
-561.529	-121.113	0.048	-0.008
-560.515	-41.387	-0.174	-0.091
-559.500	140.179	-0.150	-0.201
-558.485	516.336	-0.021	0.051
-557.471	129.747	-0.142	-0.184
-556.456	-85.189	-0.429	0.137
-555.442	-74.739	0.121	0.044
-554.427	392.668	-0.117	-0.248
-553.412	-200.000	-0.032	0.194
-552.398	464.527	0.073	-0.167
-551.383	-29.276	-0.228	-0.132
-550.369	502.296	0.205	-0.481
-549.354	566.109	-0.167	-0.412
-548.339	-107.494	-0.308	0.069
-547.325	800.000	-0.050	0.171
-546.310	21.089	-0.266	-0.219
-545.296	-126.910	0.105	0.016
-544.281	-74.638	-0.070	-0.026
-543.266	-73.358	-0.309	0.115
-542.252	800.000	-0.003	-0.011
-541.237	-53.823	-0.076	-0.035
-540.223	414.394	-0.121	-0.262
-539.208	98.701	0.146	-0.171
-538.193	-200.000	0.062	-0.297
-537.179	152.360	-0.081	-0.112
-536.164	800.000	0.047	0.153
-535.150	-98.507	-0.168	0.044
-534.135	167.657	0.096	-0.139
-533.121	-200.000	-0.009	0.066
-532.106	-200.000	0.001	0.137
-531.091	-95.323	0.245	-0.067
-530.077	-200.000	0.050	-0.309
-529.062	-99.091	0.395	0.102
-528.048	594.083	0.025	0.063
-527.033	-27.775	-0.213	0.126
-526.018	58.903	-0.046	0.045
-525.004	175.307	0.053	0.078
-523.989	-124.673	-0.358	0.056
-522.975	-26.902	-0.178	0.106
-521.960	-67.616	0.152	-0.061
-520.945	-200.000	-0.021	0.172
-519.931	-94.527	0.225	-0.062
-518.916	-55.888	-0.099	-0.045
-517.902	63.398	-0.091	-0.092
-516.887	-115.533	0.165	-0.031
-515.872	-200.000	0.054	-0.323
-514.858	-34.644	-0.404	-0.224
-513.843	28.570	0.260	-0.223
-512.829	249.368	-0.028	-0.049
-511.814	-200.000	-0.001	0.188
-510.799	-26.376	-0.421	-0.250
-509.785	-181.440	0.170	0.003
-508.770	33.168	-0.290	0.255
-507.756	22.882	0.111	-0.092
-506.741	166.535	-0.124	-0.179
-505.726	65.804	-0.134	0.137
-504.712	-145.545	-0.300	-0.027
-503.697	800.000	-0.068	0.205
-502.683	248.024	-0.173	0.296
-501.668	196.341	-0.089	-0.138
-500.653	-46.751	-0.008	-0.004
-499.639	64.713	0.144	-0.147
-498.624	17.856	-0.114	-0.092
-497.610	145.290	0.079	-0.107
-496.595	52.817	-0.167	-0.162
-495.581	39.624	-0.073	0.066
-494.566	112.150	-0.248	0.304
-493.551	240.679	0.038	-0.064
-492.537	-135.372	0.213	0.026
-491.522	-51.346	-0.300	-0.142
-490.508	153.292	0.162	0.225
-489.493	-200.000	-0.010	0.392
-488.478	84.764	0.153	0.170
-487.464	65.643	0.061	0.062
-486.449	174.883	-0.105	0.155
-485.435	-67.056	0.264	-0.105
-484.420	197.045	0.082	-0.127
-483.405	-100.186	-0.244	-0.061
-482.391	-175.475	0.373	0.010
-481.376	404.403	-0.156	-0.333
-480.362	-200.000	-0.038	-0.223
-479.347	302.065	-0.121	0.228
-478.332	-149.230	0.120	0.010
-477.318	-126.467	-0.037	0.006
-476.303	-79.483	0.101	0.035
-475.289	388.877	-0.161	-0.338
-474.274	42.133	0.156	0.144
-473.259	299.269	-0.321	-0.598
-472.245	-200.000	0.029	-0.156
-471.230	275.490	0.140	0.252
-470.216	800.000	-0.053	-0.226
-469.201	-94.173	0.182	-0.050
-468.186	-200.000	-0.031	0.195
-467.172	38.933	-0.078	0.070
-466.157	-75.415	0.340	-0.123
-465.143	73.749	-0.149	-0.159
-464.128	279.916	-0.083	-0.150
-463.113	-58.507	0.338	0.149
-462.099	-200.000	0.008	-0.093
-461.084	-90.793	0.292	0.085
-460.070	197.092	-0.049	-0.075
-459.055	-200.000	0.051	0.403
-458.040	-42.030	0.395	-0.205
-457.026	12.283	-0.103	0.080
-456.011	-107.472	-0.265	-0.059
-454.997	0.341	-0.118	0.085
-453.982	-36.778	-0.101	0.055
-452.968	256.986	-0.090	-0.157
-451.953	-73.851	-0.283	0.104
-450.938	-108.024	0.286	0.063
-449.924	109.005	-0.084	0.101
-448.909	-117.684	0.239	0.043
-447.895	81.575	-0.020	0.022
-446.880	-152.562	-0.053	0.004
-445.865	-140.037	0.344	-0.037
-444.851	-56.281	0.082	-0.037
-443.836	143.278	0.107	0.144
-442.822	4.096	0.252	-0.187
-441.807	800.000	-0.042	-0.175
-440.792	130.388	-0.137	0.178
-439.778	-14.377	-0.099	0.065
-438.763	-103.288	-0.170	-0.041
-437.749	-43.702	-0.359	0.183
-436.734	244.311	-0.104	-0.177
-435.719	229.571	-0.096	-0.159
-434.705	-200.000	0.012	-0.188
-433.690	-126.491	-0.326	0.049
-432.676	-76.798	0.258	0.091
-431.661	726.717	0.064	0.171
-430.646	-72.075	-0.152	0.057
-429.632	-65.584	0.011	0.004
-428.617	168.233	0.125	-0.180
-427.603	-200.000	0.001	-0.043
-426.588	-76.440	0.193	-0.069
-425.573	210.738	-0.191	-0.303
-424.559	4.745	0.250	0.186
-423.544	12.386	0.272	0.212
-422.530	-118.237	0.157	0.028
-421.515	202.735	-0.092	-0.143
-420.500	800.000	-0.046	-0.148
-419.486	-200.000	0.043	0.425
-418.471	332.992	-0.036	-0.071
-417.457	-200.000	-0.020	-0.260
-416.442	-89.007	0.116	-0.035
-415.428	488.516	-0.078	0.180
-414.413	800.000	-0.056	0.164
-413.398	140.447	-0.107	-0.142
-412.384	-87.606	0.296	-0.090
-411.369	163.692	0.253	0.360
-410.355	115.073	-0.078	-0.096
-409.340	25.988	-0.256	-0.216
-408.325	436.636	-0.069	-0.152
-407.311	208.683	0.173	-0.273
-406.296	85.741	-0.089	0.099
-405.282	-38.625	0.149	-0.080
-404.267	-29.882	-0.172	-0.099
-403.252	-200.000	0.034	-0.368
-402.238	296.238	0.283	-0.524
-401.223	430.722	0.143	-0.313
-400.209	743.601	-0.126	0.342
-399.194	-46.968	-0.349	-0.172
-398.179	-105.110	-0.032	0.007
-397.165	13.376	-0.134	-0.105
-396.150	448.145	0.111	0.246
-395.136	9.002	-0.150	-0.114
-394.121	-200.000	0.007	-0.264
-393.106	23.726	-0.303	0.252
-392.092	-200.000	0.017	0.121
-391.077	-16.661	0.194	0.124
-390.063	136.956	0.163	0.215
-389.048	-52.096	-0.057	0.027
-388.033	197.038	0.098	-0.151
-387.019	11.039	-0.209	-0.161
-386.004	123.602	0.098	-0.124
-384.990	95.025	0.065	0.074
-383.975	-200.000	-0.019	0.257
-382.960	-152.705	0.189	0.014
-381.946	800.000	0.082	-0.283
-380.931	517.456	0.054	-0.128
-379.917	77.935	-0.125	0.135
-378.902	-32.196	-0.084	0.047
-377.888	283.452	0.123	0.223
-376.873	-72.147	0.210	-0.079
-375.858	-200.000	-0.022	-0.132
-374.844	-136.297	0.142	0.017
-373.829	144.156	0.070	-0.094
-372.815	800.000	0.081	0.240
-371.800	-200.000	-0.004	0.042
-370.785	59.690	0.212	0.211
-369.771	800.000	0.088	-0.276
-368.756	71.671	0.037	0.038
-367.742	-88.300	0.245	0.074
-366.727	684.860	0.094	0.248
-365.712	385.832	-0.139	-0.289
-364.698	800.000	0.034	-0.136
-363.683	-139.564	0.235	-0.025
-362.669	-156.459	0.238	-0.015
-361.654	-163.397	0.109	-0.005
-360.639	-39.101	-0.312	0.166
-359.625	-132.065	0.109	-0.014
-358.610	-59.638	0.202	0.088
-357.596	-200.000	0.107	0.587
-356.581	-200.000	-0.054	0.474
-355.566	-200.000	0.031	0.319
-354.552	-123.453	0.264	-0.042
-353.537	-200.000	-0.013	0.117
-352.523	-200.000	0.001	0.078
-351.508	256.647	0.094	0.162
-350.493	293.758	-0.119	0.219
-349.479	328.001	0.069	0.133
-348.464	-131.798	0.478	0.063
-347.450	-90.301	-0.213	0.062
-346.435	640.740	-0.087	-0.223
-345.420	775.045	0.139	0.381
-344.406	48.965	0.128	0.121
-343.391	-200.000	-0.018	-0.243
-342.377	-80.076	-0.290	0.098
-341.362	327.541	-0.161	0.311
-340.348	-95.733	-0.201	-0.054
-339.333	-19.184	-0.070	0.044
-338.318	-42.845	0.230	0.118
-337.304	-24.811	-0.349	0.209
-336.289	-73.601	-0.077	-0.028
-335.275	13.548	0.137	-0.107
-334.260	-71.359	-0.093	-0.035
-333.245	-16.556	0.146	0.093
-332.231	-10.415	0.052	0.035
-331.216	-200.000	0.062	-0.393
-330.202	-200.000	-0.032	-0.146
-329.187	-147.604	-0.102	-0.009
-328.172	-200.000	-0.048	-0.299
-327.158	233.657	0.111	0.184
-326.143	-200.000	0.011	0.085
-325.129	-188.854	0.409	0.005
-324.114	-56.271	0.176	0.079
-323.099	299.462	-0.029	-0.054
-322.085	800.000	0.032	0.120
-321.070	424.583	-0.082	0.178
-320.056	-89.870	0.168	0.050
-319.041	-112.386	-0.162	-0.033
-318.026	-200.000	-0.022	0.350
-317.012	-133.291	0.203	0.026
-315.997	-24.194	-0.077	-0.046
-314.983	-200.000	0.001	0.103
-313.968	-101.392	0.171	-0.042
-312.953	57.112	-0.041	-0.040
-311.939	-32.987	-0.053	-0.029
-310.924	-200.000	-0.013	0.275
-309.910	-92.273	0.165	0.047
-308.895	-200.000	0.024	0.409
-307.880	-96.011	-0.199	-0.053
-306.866	-83.926	0.079	0.025
-305.851	437.610	-0.164	-0.360
-304.837	16.893	0.098	-0.078
-303.822	-88.311	-0.074	0.022
-302.807	-200.000	0.263	0.001
-301.793	468.839	-0.152	0.344
-300.778	-183.135	0.144	-0.003
-299.764	205.625	-0.264	0.412
-298.749	800.000	-0.049	-0.158
-297.735	-56.639	0.143	0.064
-296.720	18.498	0.091	-0.073
-295.705	540.657	0.056	0.134
-294.691	137.177	-0.069	0.091
-293.676	137.760	-0.058	0.077
-292.662	-132.159	0.108	-0.014
-291.647	13.131	0.177	-0.138
-290.632	177.962	0.164	-0.240
-289.618	-124.315	0.194	-0.031
-288.603	-200.000	-0.011	0.250
-287.589	-14.376	-0.315	0.204
-286.574	64.735	0.170	0.172
-285.559	-200.000	-0.046	-0.238
-284.545	-111.535	-0.100	-0.020
-283.530	800.000	-0.067	0.203
-282.516	-200.000	0.025	-0.174
-281.501	-95.588	0.188	0.051
-280.486	-70.039	-0.163	-0.063
-279.472	-14.855	0.500	-0.323
-278.457	-59.391	0.208	-0.090
-277.443	330.441	0.120	0.233
-276.428	800.000	-0.049	-0.213
-275.413	-200.000	0.031	-0.303
-274.399	-135.175	-0.363	-0.044
-273.384	-158.282	0.148	0.009
-272.370	255.867	-0.118	-0.203
-271.355	100.571	0.232	-0.270
-270.340	-152.612	-0.231	0.017
-269.326	5.255	0.044	0.033
-268.311	303.599	-0.113	-0.211
-267.297	33.388	-0.257	-0.224
-266.282	-200.000	0.009	0.234
-265.267	-92.181	-0.226	0.064
-264.253	-42.212	0.080	0.041
-263.238	101.144	0.180	0.211
-262.224	-192.841	-0.272	0.002
-261.209	-82.991	-0.353	-0.114
-260.195	81.469	-0.052	0.057
-259.180	-38.359	0.140	0.075
-258.165	-18.958	0.331	0.207
-257.151	-200.000	0.012	0.426
-256.136	-107.188	0.120	-0.027
-255.122	414.888	0.253	-0.542
-254.107	98.650	-0.144	0.166
-253.092	-69.096	-0.305	-0.118
-252.078	36.597	-0.037	-0.033
-251.063	-67.512	0.079	-0.031
-250.049	95.501	0.229	-0.263
-249.034	-200.000	0.000	-0.060
-248.019	-2.519	0.233	-0.164
-247.005	-8.365	-0.072	0.049
-245.990	800.000	-0.063	-0.239
-244.976	404.092	-0.079	0.167
-243.961	-200.000	-0.002	0.134
-242.946	-96.950	-0.176	0.046
-241.932	-200.000	-0.007	0.069
-240.917	763.253	0.017	0.046
-239.903	-200.000	-0.049	0.256
-238.888	800.000	0.080	0.331
-237.873	104.039	0.076	0.089
-236.859	-61.038	-0.102	0.043
-235.844	-200.000	0.007	0.033
-234.830	8.451	-0.286	0.216
-233.815	-166.351	-0.284	0.012
-232.800	-144.236	0.320	-0.030
-231.786	-42.692	-0.078	0.040
-230.771	-200.000	0.038	-0.182
-229.757	34.998	-0.202	0.177
-228.742	800.000	-0.021	0.091
-227.727	800.000	0.031	0.100
-226.713	289.619	-0.073	-0.132
-225.698	-19.113	-0.030	0.019
-224.684	-200.000	0.001	-0.090
-223.669	179.680	0.125	0.183
-222.655	-105.394	-0.110	0.025
-221.640	-92.239	-0.259	0.073
-220.625	-2.651	0.221	0.155
-219.611	-156.588	-0.259	0.016
-218.596	-104.720	0.103	0.024
-217.582	55.713	-0.264	0.257
-216.567	-103.650	0.068	0.016
-215.552	-13.989	0.144	-0.093
-214.538	-200.000	0.007	0.066
-213.523	57.178	0.208	0.203
-212.509	-200.000	0.023	0.138
-211.494	-153.600	-0.107	0.007
-210.479	-165.085	-0.272	-0.012
-209.465	800.000	-0.106	0.343
-208.450	-200.000	-0.004	-0.043
-207.436	628.072	0.132	-0.335
-206.421	-138.269	-0.403	-0.045
-205.406	87.356	0.226	0.250
-204.392	-73.814	0.089	0.032
-203.377	-45.670	0.207	0.103
-202.363	-200.000	0.033	-0.182
-201.348	-200.000	-0.008	-0.144
-200.333	-77.621	0.556	0.193
-199.319	-200.000	0.018	0.398
-198.304	252.963	0.089	-0.153
-197.290	-177.035	-0.117	0.003
-196.275	-13.469	-0.194	0.126
-195.260	-95.887	-0.140	-0.037
-194.246	-200.000	0.015	-0.134
-193.231	-200.000	0.020	-0.094
-192.217	-19.877	0.193	0.120
-191.202	2.080	0.142	0.103
-190.187	-163.329	-0.302	0.014
-189.173	9.720	0.162	-0.123
-188.158	-50.791	0.205	-0.097
-187.144	-131.034	0.099	-0.013
-186.129	86.849	0.136	0.150
-185.114	-22.857	0.112	0.068
-184.100	86.406	-0.152	0.168
-183.085	105.894	0.350	-0.415
-182.071	82.533	0.310	-0.337
-181.056	-80.609	-0.143	-0.048
-180.042	169.073	0.125	-0.178
-179.027	27.720	-0.158	0.133
-178.012	-106.287	0.329	0.074
-176.998	-16.165	-0.278	-0.177
-175.983	539.092	0.163	0.388
-174.969	98.706	0.166	0.192
-173.954	311.829	-0.049	0.092
-172.939	712.040	0.083	0.219
-171.925	-42.134	0.182	-0.093
-170.910	800.000	0.043	-0.130
-169.896	776.681	0.039	0.107
-168.881	57.830	0.264	0.258
-167.866	-7.007	0.495	0.336
-166.852	-200.000	-0.016	-0.554
-165.837	63.463	-0.167	-0.168
-164.823	-180.249	-0.062	0.001
-163.808	589.649	0.119	0.293
-162.793	-22.336	-0.243	-0.147
-161.779	13.742	0.115	-0.089
-160.764	145.592	0.118	0.158
-159.750	-200.000	0.055	-0.255
-158.735	1.567	-0.073	0.052
-157.720	129.041	0.305	-0.389
-156.706	-200.000	0.058	0.265
-155.691	99.201	-0.101	0.117
-154.677	259.819	0.141	0.244
-153.662	-74.807	0.122	0.044
-152.647	143.721	-0.111	0.148
-151.633	-200.000	0.019	-0.145
-150.618	28.821	-0.156	0.132
-149.604	-20.195	-0.437	-0.269
-148.589	-83.315	0.097	-0.031
-147.574	800.000	0.050	0.203
-146.560	-108.581	-0.202	0.043
-145.545	-200.000	-0.010	0.098
-144.531	-200.000	-0.010	-0.221
-143.516	-77.784	-0.253	-0.088
-142.502	31.430	-0.052	0.045
-141.487	256.679	-0.115	0.198
-140.472	547.840	0.085	0.203
-139.458	237.078	-0.092	0.152
-138.443	-200.000	0.012	0.386
-137.429	79.963	0.213	-0.229
-136.414	-200.000	0.111	-0.514
-135.399	52.513	0.196	-0.187
-134.385	-167.411	-0.169	0.007
-133.370	205.757	-0.146	-0.227
-132.356	-78.478	0.275	0.094
-131.341	-69.348	0.102	-0.039
-130.326	-164.627	0.101	0.005
-129.312	-200.000	-0.011	-0.136
-128.297	-161.809	0.327	0.017
-127.283	-115.123	0.474	-0.090
-126.268	259.930	-0.084	0.145
-125.253	-200.000	-0.045	0.221
-124.239	-37.936	-0.370	-0.197
-123.224	-9.627	0.239	-0.159
-122.210	51.370	0.158	0.150
-121.195	-200.000	-0.016	0.069
