DTS Sentinel unit serial number:	SN413079Multiplexer serial number:	ORYXHardware model number:	OX4-SRSoftware version number:	ORYX F/W v4.00 Oryx Data Collector v3.7.2.0data status	okinstallation	princeton_trtdifferential loss correction	single-endedforward channel	channel 1reverse channel	N/Adate	2019/09/13time	10:06:35forward acquisition time	60.00reverse acquisition time	0.00gamma	496.2192k internal	0.2325k external	0.2325temperature offset calibration	1.0156default loss term (dB/km)	0.3790temperature slope calibration	1.0000multiplexer offset coefficient	1.0000multiplexer slope coefficient	1.0000fibre end	0.00T internal ref (°C)	30.44T ext. ref 1 (°C)	4.49T ext. ref 2 (°C)	27.66length (m)	temperature (°C)	Stokes	anti-Stokes-747.200	-200.000	-0.015	0.407
-746.185	193.412	0.058	-0.089
-745.171	-91.509	-0.264	0.076
-744.156	167.559	-0.068	0.097
-743.142	246.766	0.190	-0.324
-742.127	-200.000	0.017	0.204
-741.112	43.237	0.075	-0.069
-740.098	800.000	-0.016	-0.052
-739.083	65.302	0.118	-0.121
-738.069	-138.656	-0.276	-0.031
-737.054	-90.958	0.188	0.055
-736.039	456.647	-0.131	0.293
-735.025	143.172	-0.041	-0.056
-734.010	-200.000	-0.032	0.168
-732.996	16.886	-0.296	-0.236
-731.981	118.275	-0.238	0.297
-730.966	-43.080	0.175	-0.089
-729.952	102.504	0.127	0.149
-728.937	-200.000	0.021	0.160
-727.923	683.399	-0.061	0.160
-726.908	96.398	0.225	-0.260
-725.894	-123.978	-0.206	0.033
-724.879	437.119	-0.060	0.132
-723.864	-135.426	0.073	0.009
-722.850	624.102	0.030	0.077
-721.835	-8.096	-0.395	0.268
-720.821	-142.332	-0.133	-0.013
-719.806	-43.987	-0.095	-0.048
-718.791	85.880	-0.126	0.140
-717.777	-49.059	-0.340	-0.164
-716.762	335.818	0.135	0.264
-715.748	101.412	-0.151	0.177
-714.733	65.596	0.238	-0.243
-713.718	-38.808	-0.237	0.126
-712.704	91.570	0.167	-0.189
-711.689	38.783	-0.133	-0.120
-710.675	-97.755	0.231	-0.060
-709.660	-139.110	0.160	-0.017
-708.645	-133.094	0.368	0.047
-707.631	135.786	-0.085	0.111
-706.616	-36.582	0.132	-0.071
-705.602	21.669	0.182	0.149
-704.587	-200.000	0.029	-0.270
-703.572	-50.814	-0.163	-0.077
-702.558	-100.835	0.254	0.063
-701.543	800.000	-0.017	-0.060
-700.529	41.175	-0.228	-0.208
-699.514	-200.000	-0.057	0.282
-698.499	-136.904	0.062	-0.007
-697.485	-6.979	0.314	-0.215
-696.470	238.465	-0.041	0.068
-695.456	247.864	0.113	0.192
-694.441	-117.744	0.080	0.015
-693.426	43.186	0.092	0.085
-692.412	24.420	0.223	-0.185
-691.397	248.452	0.141	0.240
-690.383	-51.959	0.366	0.171
-689.368	800.000	0.027	0.086
-688.354	-200.000	0.002	-0.186
-687.339	800.000	-0.045	-0.149
-686.324	126.501	0.106	0.135
-685.310	419.809	0.078	0.168
-684.295	800.000	0.087	-0.253
-683.281	33.805	-0.205	-0.179
-682.266	25.173	-0.216	-0.180
-681.251	-114.347	-0.399	-0.077
-680.237	82.035	-0.053	-0.058
-679.222	-121.173	0.224	-0.038
-678.208	-104.532	-0.270	0.063
-677.193	77.342	0.259	0.277
-676.178	-107.334	-0.124	-0.028
-675.164	153.957	-0.084	-0.117
-674.149	-30.452	-0.129	0.074
-673.135	442.957	-0.094	-0.208
-672.120	219.405	0.118	-0.189
-671.105	-200.000	-0.024	0.142
-670.091	167.654	0.053	-0.076
-669.076	-11.059	0.053	-0.035
-668.062	393.096	-0.087	-0.182
-667.047	100.867	-0.276	-0.322
-666.032	243.770	-0.110	-0.186
-665.018	-200.000	-0.004	0.154
-664.003	640.759	-0.054	-0.137
-662.989	53.720	-0.048	-0.046
-661.974	757.631	-0.088	0.239
-660.959	35.419	0.182	-0.161
-659.945	800.000	-0.052	-0.229
-658.930	-96.885	-0.348	-0.092
-657.916	-41.346	0.316	0.164
-656.901	-111.007	0.134	0.028
-655.886	-30.347	-0.046	-0.026
-654.872	179.988	0.064	0.095
-653.857	144.211	-0.112	-0.151
-652.843	-33.010	-0.119	-0.066
-651.828	394.701	-0.097	0.204
-650.814	34.778	0.072	-0.064
-649.799	-200.000	-0.004	-0.065
-648.784	-133.607	0.249	-0.031
-647.770	800.000	0.025	-0.095
-646.755	264.075	-0.103	-0.180
-645.741	15.731	0.255	0.201
-644.726	-147.601	-0.088	0.007
-643.711	-200.000	0.015	0.080
-642.697	114.878	0.095	-0.117
-641.682	271.881	0.056	0.099
-640.668	256.039	0.136	-0.235
-639.653	-147.352	-0.163	-0.014
-638.638	15.577	-0.273	0.215
-637.624	-200.000	0.040	-0.188
-636.609	68.158	-0.129	-0.132
-635.595	208.896	-0.050	-0.078
-634.580	800.000	-0.008	0.026
-633.565	800.000	-0.139	-0.432
-632.551	83.361	-0.237	0.259
-631.536	118.546	-0.389	-0.482
-630.522	304.504	-0.096	0.180
-629.507	-87.241	-0.191	-0.058
-628.492	-39.562	0.189	0.099
-627.478	87.686	-0.246	0.274
-626.463	-181.485	-0.201	-0.004
-625.449	-74.167	-0.120	-0.044
-624.434	-12.844	-0.377	-0.247
-623.419	162.942	0.098	0.138
-622.405	242.683	0.071	-0.120
-621.390	-5.225	-0.245	-0.170
-620.376	800.000	-0.047	0.172
-619.361	-114.939	-0.076	0.015
-618.346	-147.449	0.263	-0.022
-617.332	201.047	0.069	0.107
-616.317	-187.542	0.271	0.004
-615.303	-176.887	-0.220	0.006
-614.288	800.000	-0.112	-0.318
-613.273	56.336	-0.248	-0.242
-612.259	2.070	-0.103	0.074
-611.244	-200.000	-0.024	-0.198
-610.230	-200.000	0.043	-0.362
-609.215	800.000	0.049	-0.173
-608.201	-136.646	-0.171	-0.020
-607.186	-109.094	0.408	0.087
-606.171	-166.696	0.073	0.003
-605.157	-200.000	0.010	0.233
-604.142	-200.000	-0.045	-0.330
-603.128	99.862	-0.177	0.206
-602.113	88.967	-0.136	-0.152
-601.098	-200.000	0.022	-0.123
-600.084	-91.860	-0.394	0.112
-599.069	-200.000	0.019	0.132
-598.055	-15.436	-0.134	-0.086
-597.040	-200.000	0.033	-0.225
-596.025	-101.273	-0.263	0.064
-595.011	-47.891	-0.126	-0.061
-593.996	-92.435	0.331	0.093
-592.982	-169.668	-0.154	0.006
-591.967	375.488	-0.152	-0.311
-590.952	-200.000	-0.031	0.282
-589.938	800.000	0.052	-0.150
-588.923	200.050	-0.157	-0.242
-587.909	-200.000	0.005	0.269
-586.894	67.183	0.140	-0.143
-585.879	-200.000	-0.081	0.469
-584.865	-200.000	0.046	0.219
-583.850	-48.003	0.144	-0.070
-582.836	-92.661	0.085	0.024
-581.821	-7.890	0.276	-0.186
-580.806	493.750	-0.109	-0.251
-579.792	-43.456	0.340	-0.172
-578.777	-100.318	-0.356	0.088
-577.763	-134.250	0.164	0.020
-576.748	-200.000	0.003	-0.202
-575.733	-200.000	0.016	-0.161
-574.719	-102.716	0.273	0.065
-573.704	-135.267	0.454	-0.055
-572.690	662.910	0.054	-0.141
-571.675	-116.570	-0.251	-0.046
-570.661	800.000	0.044	0.137
-569.646	6.540	0.109	-0.081
-568.631	13.405	-0.110	0.086
-567.617	-98.559	0.162	0.041
-566.602	-200.000	0.000	0.177
-565.588	168.515	-0.073	0.104
-564.573	-200.000	-0.024	-0.183
-563.558	-36.496	-0.209	-0.113
-562.544	-200.000	0.012	0.160
-561.529	197.281	-0.073	-0.112
-560.515	443.478	0.126	-0.277
-559.500	552.314	-0.109	-0.263
-558.485	-50.497	0.347	0.164
-557.471	-62.860	-0.429	-0.178
-556.456	76.952	0.029	-0.030
-555.442	800.000	-0.076	-0.276
-554.427	-200.000	-0.043	-0.264
-553.412	35.240	-0.155	0.136
-552.398	-47.754	0.353	0.171
-551.383	-5.268	-0.273	0.188
-550.369	-127.882	-0.044	0.006
-549.354	245.383	-0.040	0.068
-548.339	251.104	-0.076	0.129
-547.325	-167.560	-0.325	0.013
-546.310	-77.341	0.400	-0.139
-545.296	671.077	0.088	-0.227
-544.281	4.587	0.150	0.110
-543.266	-200.000	-0.061	-0.400
-542.252	-200.000	-0.011	0.050
-541.237	-200.000	-0.020	0.136
-540.223	-109.593	-0.478	-0.101
-539.208	-138.068	0.199	0.022
-538.193	56.141	-0.183	-0.178
-537.179	253.734	0.224	0.383
-536.164	-131.393	0.374	-0.050
-535.150	-50.680	0.203	-0.096
-534.135	-112.034	-0.269	0.054
-533.121	-153.536	-0.097	0.007
-532.106	68.950	0.186	-0.191
-531.091	800.000	0.072	0.306
-530.077	-124.033	-0.484	-0.076
-529.062	488.570	0.024	0.054
-528.048	-119.539	-0.395	0.068
-527.033	-137.041	0.481	-0.055
-526.018	397.495	-0.049	-0.103
-525.004	190.852	-0.040	-0.060
-523.989	-200.000	0.030	-0.237
-522.975	-200.000	-0.035	-0.269
-521.960	237.082	0.224	-0.371
-520.945	-200.000	0.016	0.289
-519.931	-200.000	-0.012	-0.065
-518.916	126.924	-0.105	0.133
-517.902	353.966	0.139	0.276
-516.887	-104.749	0.097	0.022
-515.872	169.821	-0.046	-0.066
-514.858	68.647	0.206	-0.211
-513.843	36.004	-0.198	0.174
-512.829	-112.918	0.398	0.079
-511.814	-119.394	0.191	-0.033
-510.799	-45.919	-0.349	0.172
-509.785	310.600	-0.081	0.151
-508.770	-141.764	0.214	0.021
-507.756	-18.908	-0.119	-0.074
-506.741	283.861	-0.074	-0.133
-505.726	-200.000	-0.030	-0.234
-504.712	-126.794	0.051	0.007
-503.697	-19.537	-0.386	0.239
-502.683	449.562	0.029	0.063
-501.668	-159.930	-0.021	0.001
-500.653	123.473	0.101	0.127
-499.639	-72.311	0.185	0.069
-498.624	314.623	-0.044	-0.082
-497.610	28.318	-0.142	-0.120
-496.595	-200.000	0.002	0.067
-495.581	-41.106	-0.048	0.025
-494.566	186.346	0.081	-0.121
-493.551	-79.840	-0.230	0.077
-492.537	-115.484	-0.269	0.051
-491.522	-200.000	0.053	-0.231
-490.508	-200.000	-0.059	-0.314
-489.493	-151.186	-0.370	-0.028
-488.478	-200.000	0.065	0.399
-487.464	150.077	0.186	-0.252
-486.449	-134.720	0.008	-0.001
-485.435	266.146	0.051	0.090
-484.420	-67.482	0.224	-0.088
-483.405	-69.510	-0.128	0.049
-482.391	-122.780	-0.170	-0.027
-481.376	-153.063	0.233	-0.016
-480.362	399.708	0.060	0.125
-479.347	-200.000	0.041	0.243
-478.332	-177.305	-0.279	0.007
-477.318	-158.739	0.243	0.014
-476.303	-200.000	-0.001	-0.148
-475.289	-200.000	-0.021	0.145
-474.274	-8.281	0.046	-0.031
-473.259	21.938	-0.067	0.054
-472.245	-6.503	-0.233	-0.158
-471.230	53.264	-0.118	-0.113
-470.216	27.645	-0.100	-0.084
-469.201	34.498	0.043	0.038
-468.186	8.000	0.185	0.138
-467.172	-73.471	0.231	0.084
-466.157	247.178	0.145	-0.244
-465.143	800.000	0.058	-0.232
-464.128	202.583	-0.120	-0.185
-463.113	-119.926	0.218	-0.037
-462.099	-91.416	0.155	-0.044
-461.084	235.908	0.164	0.270
-460.070	-98.305	-0.105	0.027
-459.055	-96.437	-0.150	0.040
-458.040	-200.000	-0.015	0.075
-457.026	75.055	0.045	0.047
-456.011	-200.000	0.012	0.308
-454.997	195.448	-0.045	-0.069
-453.982	4.063	0.355	-0.259
-452.968	-200.000	0.017	-0.191
-451.953	147.479	0.299	0.402
-450.938	173.818	-0.031	-0.045
-449.924	94.967	-0.120	0.137
-448.909	-51.597	0.061	-0.028
-447.895	-1.366	-0.224	-0.158
-446.880	203.465	-0.247	0.382
-445.865	58.539	-0.108	0.106
-444.851	-200.000	-0.003	0.031
-443.836	227.730	-0.093	0.151
-442.822	716.684	0.151	-0.399
-441.807	152.332	-0.173	0.235
-440.792	-200.000	0.013	0.077
-439.778	-200.000	0.043	0.242
-438.763	-34.548	-0.136	0.074
-437.749	175.870	0.047	0.068
-436.734	800.000	-0.018	0.068
-435.719	-200.000	0.027	-0.246
-434.705	-156.394	-0.071	0.004
-433.690	307.274	0.073	-0.136
-432.676	84.621	0.102	0.111
-431.661	178.170	-0.126	0.184
-430.646	-60.435	0.127	0.054
-429.632	-63.298	-0.130	-0.053
-428.617	-74.706	-0.256	-0.092
-427.603	800.000	0.101	-0.284
-426.588	800.000	0.028	0.097
-425.573	-116.517	-0.168	-0.031
-424.559	390.194	0.097	0.200
-423.544	800.000	0.030	0.108
-422.530	119.731	-0.135	0.166
-421.515	800.000	0.038	0.141
-420.500	55.566	0.058	-0.056
-419.486	-68.486	0.122	-0.047
-418.471	478.621	-0.079	0.178
-417.457	-72.516	0.140	-0.052
-416.442	49.236	0.083	0.078
-415.428	-80.277	-0.232	-0.077
-414.413	-116.236	-0.041	-0.008
-413.398	800.000	-0.113	0.318
-412.384	66.600	0.071	-0.072
-411.369	46.666	0.180	0.167
-410.355	-200.000	0.028	0.136
-409.340	-69.384	-0.403	0.154
-408.325	-200.000	-0.001	0.102
-407.311	155.257	-0.081	0.111
-406.296	-36.797	-0.344	0.184
-405.282	-29.617	-0.196	0.111
-404.267	194.710	0.037	-0.056
-403.252	374.278	0.042	-0.085
-402.238	-200.000	-0.047	0.226
-401.223	141.724	-0.169	0.223
-400.209	-51.642	0.109	-0.051
-399.194	800.000	0.034	-0.117
-398.179	-35.664	-0.214	-0.115
-397.165	-9.323	0.051	0.034
-396.150	172.482	-0.192	0.275
-395.136	36.453	-0.178	-0.156
-394.121	800.000	-0.083	-0.300
-393.106	161.109	-0.115	0.159
-392.092	800.000	-0.053	0.184
-391.077	-144.321	-0.173	-0.016
-390.063	43.587	0.146	0.133
-389.048	-200.000	0.023	0.374
-388.033	800.000	0.050	0.183
-387.019	-63.501	-0.183	0.075
-386.004	-200.000	0.027	-0.182
-384.990	-101.371	-0.248	-0.060
-383.975	-27.839	-0.052	0.030
-382.960	-158.200	-0.216	-0.013
-381.946	4.538	0.183	-0.133
-380.931	-3.937	0.298	-0.205
-379.917	-200.000	0.055	0.395
-378.902	133.466	-0.099	0.128
-377.888	-3.127	0.042	-0.029
-376.873	-47.231	0.016	-0.008
-375.858	-18.622	-0.055	-0.034
-374.844	8.034	0.347	0.259
-373.829	-27.949	-0.121	0.069
-372.815	800.000	0.031	0.125
-371.800	-79.955	-0.291	-0.097
-370.785	14.394	0.280	-0.217
-369.771	-47.547	0.528	-0.255
-368.756	-17.476	-0.114	-0.071
-367.742	-200.000	-0.055	-0.332
-366.727	-156.874	0.079	0.005
-365.712	-200.000	0.000	0.199
-364.698	-3.629	0.193	0.133
-363.683	-56.988	-0.347	0.152
-362.669	800.000	0.011	0.038
-361.654	-178.529	-0.299	-0.007
-360.639	-200.000	-0.022	-0.099
-359.625	-200.000	-0.067	0.328
-358.610	-200.000	-0.021	-0.332
-357.596	22.946	0.026	-0.021
-356.581	800.000	-0.047	-0.141
-355.566	-120.874	0.028	0.005
-354.552	-154.186	-0.222	0.015
-353.537	-62.959	0.169	-0.069
-352.523	-200.000	0.031	0.449
-351.508	272.065	-0.107	0.187
-350.493	526.386	-0.058	-0.135
-349.479	133.058	-0.053	-0.068
-348.464	-200.000	-0.009	-0.096
-347.450	-200.000	-0.026	0.216
-346.435	-144.168	0.256	0.024
-345.420	158.155	0.161	-0.222
-344.406	-200.000	0.014	-0.166
-343.391	-200.000	-0.027	-0.183
-342.377	33.856	-0.031	-0.027
-341.362	-189.498	0.030	-0.000
-340.348	-15.187	0.016	0.010
-339.333	800.000	-0.076	-0.292
-338.318	98.621	0.135	0.154
-337.304	633.392	0.078	-0.195
-336.289	-70.797	0.249	0.093
-335.275	-25.746	-0.274	-0.160
-334.260	38.452	-0.232	0.205
-333.245	264.190	0.156	-0.270
-332.231	469.021	0.101	-0.225
-331.216	-10.389	-0.106	0.070
-330.202	-72.164	0.181	-0.067
-329.187	-39.434	-0.158	-0.082
-328.172	-200.000	0.032	-0.162
-327.158	-40.974	0.217	-0.111
-326.143	148.167	-0.194	0.261
-325.129	18.059	-0.104	-0.083
-324.114	800.000	-0.027	0.088
-323.099	-32.666	0.051	0.028
-322.085	430.372	-0.077	0.166
-321.070	50.255	0.289	0.271
-320.056	-200.000	0.055	-0.348
-319.041	69.283	0.046	0.047
-318.026	26.055	-0.063	-0.052
-317.012	-127.139	0.090	0.013
-315.997	-44.357	-0.337	-0.167
-314.983	-38.128	0.225	0.119
-313.968	765.024	0.023	0.063
-312.953	-126.343	0.174	-0.026
-311.939	51.408	0.299	-0.282
-310.924	-200.000	-0.031	0.304
-309.910	-110.491	0.298	-0.061
-308.895	-140.579	0.228	-0.024
-307.880	62.187	-0.119	0.118
-306.866	38.123	0.220	0.194
-305.851	-7.000	0.163	-0.110
-304.837	314.929	0.070	-0.131
-303.822	-74.309	-0.233	0.083
-302.807	194.737	-0.009	0.013
-301.793	108.354	-0.021	0.025
-300.778	-3.522	-0.094	0.065
-299.764	-200.000	0.012	0.084
-298.749	340.289	-0.265	-0.512
-297.735	487.937	0.058	-0.131
-296.720	335.719	0.104	0.199
-295.705	-119.993	0.253	0.043
-294.691	236.527	0.090	0.148
-293.676	-176.147	0.220	-0.006
-292.662	-3.948	0.122	-0.084
-291.647	-92.988	-0.283	0.078
-290.632	-200.000	0.015	0.153
-289.618	-200.000	0.001	0.101
-288.603	-107.009	0.226	-0.050
-287.589	-200.000	0.011	-0.126
-286.574	160.014	0.096	-0.132
-285.559	-200.000	-0.013	-0.143
-284.545	10.790	-0.051	0.038
-283.530	-12.003	0.117	0.076
-282.516	-129.806	-0.069	-0.009
-281.501	-135.341	-0.244	0.029
-280.486	-47.039	-0.207	-0.100
-279.472	-50.813	-0.047	-0.022
-278.457	-15.052	0.348	0.221
-277.443	10.757	0.201	-0.152
-276.428	-48.336	-0.260	0.124
-275.413	144.398	0.102	0.134
-274.399	145.857	0.308	0.410
-273.384	262.620	0.081	-0.139
-272.370	95.758	-0.095	0.107
-271.355	32.581	-0.166	0.142
-270.340	-200.000	0.003	0.083
-269.326	228.719	0.202	-0.326
-268.311	40.263	-0.151	-0.134
-267.297	68.433	0.254	-0.258
-266.282	-110.734	0.217	-0.044
-265.267	1.206	0.135	-0.096
-264.253	-103.424	-0.145	-0.034
-263.238	224.306	0.052	0.084
-262.224	-57.969	0.300	0.130
-261.209	800.000	-0.096	-0.303
-260.195	-73.750	0.344	0.124
-259.180	-144.932	-0.060	-0.005
-258.165	484.211	-0.096	-0.216
-257.151	800.000	-0.055	0.182
-256.136	-86.332	0.226	-0.069
-255.122	470.003	-0.112	-0.249
-254.107	313.085	0.057	0.106
-253.092	-2.020	-0.307	0.214
-252.078	41.718	0.072	-0.064
-251.063	61.448	0.112	-0.110
-250.049	800.000	0.094	0.395
-249.034	155.929	-0.127	-0.173
-248.019	800.000	0.052	-0.160
-247.005	-5.394	0.184	0.125
-245.990	201.760	-0.084	0.128
-244.976	66.937	0.074	0.075
-243.961	89.849	-0.172	-0.190
-242.946	800.000	-0.066	-0.213
-241.932	-200.000	-0.063	-0.560
-240.917	422.571	-0.097	0.206
-239.903	-49.772	0.079	0.037
-238.888	800.000	-0.216	0.621
-237.873	761.497	0.083	0.222
-236.859	-39.767	0.340	0.176
-235.844	-200.000	-0.004	0.020
-234.830	326.863	0.073	0.139
-233.815	-5.185	-0.139	0.094
-232.800	-79.082	-0.281	0.094
-231.786	800.000	-0.082	-0.245
-230.771	-35.083	0.172	0.093
-229.757	172.388	0.087	-0.124
-228.742	-100.594	-0.287	0.070
-227.727	6.204	-0.371	-0.272
-226.713	254.933	0.097	0.164
-225.698	161.784	0.133	0.184
-224.684	-81.398	-0.186	0.061
-223.669	723.698	0.099	0.260
-222.655	-98.063	0.057	0.015
-221.640	-47.757	0.259	-0.124
-220.625	-1.971	0.165	0.114
-219.611	53.752	0.195	0.185
-218.596	378.411	-0.159	0.322
-217.582	-50.754	0.194	0.090
-216.567	-200.000	0.026	0.349
-215.552	-146.910	-0.266	-0.023
-214.538	-24.741	-0.355	0.209
-213.523	85.893	0.186	-0.202
-212.509	-16.342	-0.093	-0.058
-211.494	-200.000	-0.082	-0.611
-210.479	-169.327	0.141	-0.005
-209.465	-52.980	0.140	-0.064
-208.450	-200.000	0.034	-0.191
-207.436	-148.140	0.286	0.023
-206.421	48.570	0.156	-0.145
-205.406	-200.000	0.007	-0.064
-204.392	62.840	0.154	-0.152
-203.377	742.080	-0.054	-0.144
-202.363	-134.524	0.163	-0.020
-201.348	-200.000	-0.013	0.200
-200.333	-80.133	0.646	0.214
-199.319	-200.000	0.005	0.208
-198.304	-116.744	-0.068	-0.012
-197.290	49.804	-0.374	0.348
-196.275	443.584	-0.089	0.193
-195.260	-64.498	-0.176	0.070
-194.246	-126.109	0.041	0.006
-193.231	61.151	-0.074	-0.073
-192.217	-200.000	-0.010	-0.253
-191.202	-128.197	0.198	0.028
-190.187	17.912	-0.243	-0.191
-189.173	-130.128	-0.053	-0.007
-188.158	-45.122	-0.509	0.250
-187.144	50.904	-0.254	0.238
-186.129	14.486	0.115	0.089
-185.114	-131.566	-0.151	-0.020
-184.100	-19.640	-0.020	-0.012
-183.085	-200.000	0.057	-0.312
-182.071	-45.849	0.270	0.132
-181.056	71.126	0.168	0.172
-180.042	-84.298	0.306	-0.096
-179.027	-200.000	-0.021	0.162
-178.012	451.644	-0.097	-0.212
-176.998	-200.000	0.015	-0.194
-175.983	800.000	0.094	-0.298
-174.969	-200.000	0.022	0.103
-173.954	68.359	0.079	0.080
-172.939	-107.404	0.153	-0.033
-171.925	74.797	0.166	-0.172
-170.910	-89.711	-0.149	0.043
-169.896	409.171	0.050	-0.103
-168.881	-99.125	-0.072	-0.018
-167.866	75.084	0.083	-0.086
-166.852	-134.863	0.393	-0.047
-165.837	-200.000	-0.042	0.208
-164.823	3.720	-0.193	-0.139
-163.808	-60.924	-0.114	-0.048
-162.793	-200.000	-0.005	-0.092
-161.779	-120.966	0.234	0.039
-160.764	-99.652	-0.245	-0.061
-159.750	-200.000	-0.025	0.248
-158.735	40.930	0.273	0.243
-157.720	98.942	-0.147	0.168
-156.706	-200.000	-0.007	0.077
-155.691	89.447	0.112	-0.123
-154.677	373.794	0.145	0.291
-153.662	-104.598	0.096	-0.022
-152.647	-56.422	0.168	0.073
-151.633	330.963	-0.148	-0.282
-150.618	-85.312	0.180	-0.055
-149.604	55.969	-0.106	-0.101
-148.589	-23.070	0.115	-0.068
-147.574	32.613	-0.129	0.110
-146.560	-13.366	-0.166	-0.106
-145.545	-94.649	0.151	0.040
-144.531	164.647	0.176	0.244
-143.516	-94.243	-0.249	0.067
-142.502	22.110	-0.228	-0.184
-141.487	363.234	-0.149	0.294
-140.472	-200.000	0.011	0.091
-139.458	-200.000	-0.082	0.412
-138.443	800.000	0.068	-0.253
-137.429	-161.314	0.176	-0.009
-136.414	800.000	-0.065	0.198
-135.399	-163.446	-0.335	-0.016
-134.385	-195.584	0.096	0.001
-133.370	-150.354	-0.318	0.024
-132.356	-45.460	-0.218	-0.106
-131.341	-31.166	0.177	-0.098
-130.326	-70.608	-0.184	0.069
-129.312	490.359	0.119	0.267
-128.297	-200.000	0.010	0.046
-127.283	-135.398	0.176	-0.021
-126.268	-200.000	-0.030	-0.148
-125.253	92.506	-0.209	-0.232
-124.239	-119.423	0.090	-0.015
-123.224	-200.000	-0.023	0.247
-122.210	152.504	0.150	0.202
-121.195	108.098	0.140	-0.164
