DTS Sentinel unit serial number:	SN413079Multiplexer serial number:	ORYXHardware model number:	OX4-SRSoftware version number:	ORYX F/W v4.00 Oryx Data Collector v3.7.2.0data status	okinstallation	princeton_trtdifferential loss correction	single-endedforward channel	channel 1reverse channel	N/Adate	2019/09/19time	11:34:35forward acquisition time	60.00reverse acquisition time	0.00gamma	496.2192k internal	0.2338k external	0.2338temperature offset calibration	1.0010default loss term (dB/km)	0.3790temperature slope calibration	1.0000multiplexer offset coefficient	1.0000multiplexer slope coefficient	1.0000fibre end	0.00T internal ref (°C)	25.50T ext. ref 1 (°C)	0.80T ext. ref 2 (°C)	21.25length (m)	temperature (°C)	Stokes	anti-Stokes-747.200	45.140	-0.167	-0.154
-746.185	-61.476	0.127	-0.054
-745.171	-127.767	-0.079	0.011
-744.156	-14.273	-0.280	0.181
-743.142	-21.287	0.225	0.138
-742.127	-67.661	-0.457	0.180
-741.112	-95.474	0.147	0.039
-740.098	-200.000	-0.001	-0.118
-739.083	1.578	0.271	-0.196
-738.069	-99.533	0.246	-0.062
-737.054	800.000	-0.107	-0.392
-736.039	-46.165	0.203	0.100
-735.025	800.000	0.057	-0.207
-734.010	346.573	-0.061	-0.121
-732.996	437.759	-0.039	0.085
-731.981	-105.236	-0.417	-0.095
-730.966	-110.630	0.166	-0.034
-729.952	-139.169	0.173	-0.019
-728.937	149.890	-0.236	-0.321
-727.923	112.874	0.148	0.180
-726.908	-200.000	-0.023	-0.201
-725.894	24.657	0.095	-0.079
-724.879	-18.739	-0.080	-0.050
-723.864	-52.720	-0.050	-0.023
-722.850	-200.000	-0.031	0.197
-721.835	-200.000	0.020	0.145
-720.821	800.000	-0.028	-0.095
-719.806	-83.865	0.103	0.033
-718.791	-112.161	0.430	-0.087
-717.777	149.645	-0.167	-0.227
-716.762	-112.648	-0.344	-0.069
-715.748	5.674	0.157	0.116
-714.733	800.000	0.166	-0.492
-713.718	-200.000	-0.026	-0.372
-712.704	40.654	0.183	-0.165
-711.689	-200.000	0.019	0.340
-710.675	168.120	0.053	0.076
-709.660	48.719	0.250	0.235
-708.645	315.410	0.115	-0.217
-707.631	-200.000	0.034	-0.244
-706.616	-200.000	0.009	-0.135
-705.602	-185.819	0.282	-0.004
-704.587	-90.209	-0.169	0.049
-703.572	-166.473	0.189	-0.008
-702.558	-25.562	0.136	-0.080
-701.543	-200.000	0.012	0.247
-700.529	67.637	-0.139	-0.142
-699.514	-84.041	0.190	-0.060
-698.499	-43.688	-0.118	-0.060
-697.485	179.346	-0.156	-0.229
-696.470	-92.338	0.243	0.068
-695.456	-200.000	-0.365	0.001
-694.441	800.000	0.096	-0.294
-693.426	800.000	-0.123	-0.448
-692.412	8.679	-0.151	0.114
-691.397	3.629	-0.132	-0.096
-690.383	239.447	-0.079	0.131
-689.368	8.664	0.122	-0.092
-688.354	232.294	0.098	-0.161
-687.339	-200.000	-0.004	-0.179
-686.324	-56.676	0.220	-0.098
-685.310	-15.854	-0.122	0.078
-684.295	346.077	0.175	-0.344
-683.281	86.982	-0.125	-0.138
-682.266	114.467	-0.088	-0.107
-681.251	198.739	0.065	0.100
-680.237	-200.000	0.003	0.132
-679.222	762.624	0.129	-0.352
-678.208	-20.717	-0.276	-0.170
-677.193	-200.000	0.015	-0.164
-676.178	15.347	-0.027	-0.021
-675.164	312.856	0.057	-0.108
-674.149	-142.722	0.175	-0.017
-673.135	158.141	-0.180	0.250
-672.120	-68.724	-0.275	0.106
-671.105	-200.000	-0.026	-0.241
-670.091	73.069	0.204	0.213
-669.076	-130.831	-0.413	0.055
-668.062	258.470	0.017	-0.030
-667.047	27.017	0.108	0.091
-666.032	-95.601	-0.175	-0.047
-665.018	58.524	0.150	0.148
-664.003	-193.951	0.215	0.002
-662.989	-125.103	-0.206	0.032
-661.974	-35.247	0.349	-0.190
-660.959	668.834	0.163	-0.422
-659.945	-129.591	-0.263	-0.036
-658.930	152.679	0.061	0.084
-657.916	800.000	-0.034	0.116
-656.901	397.901	-0.128	0.267
-655.886	240.906	-0.126	0.211
-654.872	-155.908	0.150	-0.010
-653.857	-168.901	-0.182	-0.007
-652.843	35.403	-0.149	-0.130
-651.828	-147.307	-0.210	-0.018
-650.814	179.959	0.214	0.313
-649.799	106.048	-0.200	-0.237
-648.784	168.439	-0.065	-0.093
-647.770	-93.767	0.401	0.111
-646.755	76.724	-0.055	0.058
-645.741	10.486	0.171	0.130
-644.726	-22.637	-0.403	0.244
-643.711	46.469	0.241	-0.224
-642.697	380.980	-0.197	-0.405
-641.682	-116.088	-0.343	0.064
-640.668	59.910	0.051	-0.050
-639.653	186.328	-0.129	-0.193
-638.638	800.000	-0.068	-0.255
-637.624	-39.038	-0.219	0.115
-636.609	61.038	0.134	0.133
-635.595	800.000	-0.086	-0.282
-634.580	-192.576	-0.137	0.001
-633.565	800.000	-0.030	-0.108
-632.551	-200.000	0.012	-0.533
-631.536	-27.731	-0.109	0.063
-630.522	50.142	0.066	0.062
-629.507	182.014	0.086	0.126
-628.492	747.329	0.084	-0.226
-627.478	125.813	0.043	-0.054
-626.463	-98.553	0.231	0.059
-625.449	-154.269	0.141	0.010
-624.434	21.014	0.243	-0.197
-623.419	800.000	0.077	0.319
-622.405	800.000	0.067	-0.188
-621.390	-94.776	0.165	0.045
-620.376	-141.829	-0.351	-0.035
-619.361	-200.000	0.039	-0.247
-618.346	800.000	0.057	0.211
-617.332	197.526	-0.087	0.133
-616.317	-134.820	-0.069	0.008
-615.303	-200.000	-0.030	0.156
-614.288	-102.510	0.116	-0.028
-613.273	-103.934	0.042	-0.010
-612.259	-39.945	0.026	0.013
-611.244	294.054	0.152	-0.277
-610.230	17.206	0.093	-0.074
-609.215	-101.804	0.316	-0.076
-608.201	85.368	-0.064	-0.070
-607.186	-200.000	0.027	0.141
-606.171	800.000	-0.117	0.423
-605.157	-186.037	-0.142	0.002
-604.142	23.385	-0.178	-0.146
-603.128	-200.000	-0.016	-0.161
-602.113	433.719	-0.106	-0.229
-601.098	376.379	0.016	0.034
-600.084	-96.441	-0.136	-0.036
-599.069	800.000	-0.023	0.069
-598.055	-200.000	-0.058	0.400
-597.040	34.514	0.065	0.056
-596.025	-200.000	0.001	-0.321
-595.011	202.409	0.108	-0.166
-593.996	35.446	-0.103	-0.091
-592.982	494.375	-0.090	-0.205
-591.967	409.496	0.213	0.449
-590.952	35.143	0.151	-0.132
-589.938	-109.462	0.148	0.031
-588.923	21.218	-0.190	-0.154
-587.909	-140.986	0.140	0.014
-586.894	800.000	-0.051	-0.186
-585.879	53.394	-0.230	-0.219
-584.865	85.519	-0.203	-0.223
-583.850	239.957	0.070	0.116
-582.836	-126.162	-0.144	0.022
-581.821	31.866	-0.166	-0.142
-580.806	-200.000	0.011	0.127
-579.792	-52.339	-0.127	-0.059
-578.777	-101.090	-0.248	-0.061
-577.763	14.558	-0.137	0.107
-576.748	-45.769	0.245	-0.121
-575.733	800.000	0.098	0.336
-574.719	-200.000	-0.006	0.075
-573.704	364.941	-0.068	0.136
-572.690	244.036	-0.082	0.137
-571.675	-200.000	0.013	0.129
-570.661	-60.818	-0.208	-0.088
-569.646	394.768	0.092	0.190
-568.631	40.138	0.121	-0.109
-567.617	-200.000	0.029	-0.324
-566.602	446.931	0.062	-0.135
-565.588	-72.162	0.107	-0.039
-564.573	-16.920	0.071	0.044
-563.558	-169.842	-0.350	0.013
-562.544	254.603	0.159	0.270
-561.529	433.413	0.191	-0.413
-560.515	-64.077	0.189	-0.077
-559.500	800.000	-0.043	0.132
-558.485	-29.000	-0.334	0.191
-557.471	-200.000	-0.034	-0.228
-556.456	-200.000	0.008	0.191
-555.442	132.532	-0.124	0.159
-554.427	-43.359	-0.144	0.072
-553.412	186.766	-0.135	0.200
-552.398	-29.332	0.276	0.157
-551.383	204.856	0.021	0.032
-550.369	-120.334	-0.076	0.013
-549.354	-68.629	-0.087	-0.034
-548.339	66.650	-0.169	-0.171
-547.325	-132.492	-0.143	-0.018
-546.310	-80.539	0.106	-0.035
-545.296	52.227	-0.123	-0.116
-544.281	-45.794	-0.250	-0.123
-543.266	197.797	-0.124	-0.189
-542.252	386.450	-0.145	-0.299
-541.237	-91.000	-0.265	-0.076
-540.223	-19.021	0.225	0.139
-539.208	16.526	-0.336	-0.264
-538.193	-102.427	-0.158	-0.038
-537.179	-200.000	-0.004	0.082
-536.164	800.000	-0.090	-0.331
-535.150	-122.813	-0.091	0.015
-534.135	-153.654	0.253	0.017
-533.121	124.932	-0.168	0.211
-532.106	-200.000	0.007	0.060
-531.091	115.363	-0.178	0.216
-530.077	769.396	0.042	-0.113
-529.062	97.860	0.180	0.206
-528.048	74.300	0.144	-0.150
-527.033	800.000	-0.109	-0.304
-526.018	-200.000	0.055	-0.288
-525.004	800.000	-0.090	-0.376
-523.989	20.794	0.169	-0.136
-522.975	-200.000	0.030	0.206
-521.960	-124.630	-0.177	-0.027
-520.945	672.812	0.107	-0.275
-519.931	-63.110	0.192	0.079
-518.916	43.599	-0.232	-0.211
-517.902	-200.000	0.027	0.263
-516.887	293.427	0.067	-0.121
-515.872	-52.575	-0.278	0.128
-514.858	-34.711	-0.140	0.076
-513.843	800.000	0.099	-0.298
-512.829	-99.605	0.433	-0.108
-511.814	-200.000	0.009	0.201
-510.799	-105.463	0.243	-0.055
-509.785	-76.443	-0.115	-0.040
-508.770	-169.014	-0.070	0.003
-507.756	-140.178	-0.128	0.013
-506.741	-200.000	-0.014	0.176
-505.726	800.000	0.090	0.381
-504.712	-97.003	0.320	-0.083
-503.697	-63.486	0.157	0.064
-502.683	800.000	-0.063	-0.223
-501.668	-171.704	-0.118	-0.004
-500.653	-4.545	0.311	-0.214
-499.639	-51.214	-0.272	0.126
-498.624	234.232	-0.078	-0.128
-497.610	157.621	0.190	0.262
-496.595	-200.000	0.012	-0.596
-495.581	6.839	0.199	-0.147
-494.566	-153.564	-0.178	-0.012
-493.551	-197.194	-0.186	-0.001
-492.537	-131.642	-0.200	0.026
-491.522	-200.000	0.015	-0.361
-490.508	-200.000	0.015	-0.278
-489.493	-200.000	-0.001	0.142
-488.478	-41.030	0.211	-0.108
-487.464	-21.538	0.135	0.082
-486.449	-200.000	-0.029	0.194
-485.435	186.478	0.123	-0.182
-484.420	-71.676	-0.216	0.080
-483.405	116.557	-0.101	0.123
-482.391	-200.000	0.033	-0.270
-481.376	800.000	-0.052	-0.210
-480.362	-200.000	-0.056	-0.359
-479.347	-120.296	-0.088	-0.015
-478.332	22.941	0.210	-0.171
-477.318	-200.000	-0.076	-0.439
-476.303	-200.000	0.018	-0.100
-475.289	16.869	0.214	-0.168
-474.274	800.000	-0.119	-0.340
-473.259	8.347	0.107	-0.080
-472.245	57.245	-0.113	0.109
-471.230	-179.485	-0.335	0.007
-470.216	-168.659	-0.329	-0.012
-469.201	-41.530	0.160	-0.082
-468.186	-117.747	0.226	-0.040
-467.172	185.534	0.117	-0.172
-466.157	228.963	0.124	-0.200
-465.143	-3.315	-0.155	-0.107
-464.128	37.964	-0.077	-0.068
-463.113	23.035	0.322	-0.262
-462.099	-200.000	0.012	0.087
-461.084	800.000	-0.086	0.245
-460.070	-70.884	0.114	0.043
-459.055	800.000	-0.050	0.206
-458.040	604.447	-0.059	0.147
-457.026	-21.575	-0.246	-0.149
-456.011	-149.177	0.268	-0.021
-454.997	-200.000	-0.020	-0.410
-453.982	359.356	0.187	0.370
-452.968	129.927	-0.257	0.326
-451.953	-127.225	-0.165	0.024
-450.938	-110.876	-0.288	0.059
-449.924	215.793	-0.099	-0.155
-448.909	-200.000	0.009	0.101
-447.895	670.862	-0.036	0.091
-446.880	19.657	0.157	-0.125
-445.865	800.000	-0.049	0.152
-444.851	85.105	0.090	-0.097
-443.836	-148.656	-0.109	-0.009
-442.822	-92.632	-0.043	-0.012
-441.807	208.476	0.160	0.248
-440.792	-14.485	0.407	-0.260
-439.778	236.904	0.181	0.297
-438.763	360.754	0.096	0.191
-437.749	-200.000	-0.033	-0.392
-436.734	181.261	0.113	-0.164
-435.719	-144.006	-0.097	0.009
-434.705	-97.856	-0.229	0.059
-433.690	-127.715	-0.096	0.014
-432.676	278.169	-0.143	0.253
-431.661	519.254	-0.105	0.244
-430.646	30.763	-0.221	0.187
-429.632	754.821	-0.070	0.187
-428.617	-113.079	-0.272	0.053
-427.603	-79.711	0.260	-0.087
-426.588	-41.490	-0.307	0.156
-425.573	-200.000	0.041	-0.272
-424.559	-200.000	0.021	-0.217
-423.544	-200.000	0.056	-0.276
-422.530	-85.876	0.159	0.049
-421.515	-91.330	-0.105	-0.030
-420.500	53.410	-0.197	-0.187
-419.486	104.360	-0.040	-0.047
-418.471	-200.000	-0.036	-0.175
-417.457	-88.119	-0.352	-0.105
-416.442	800.000	0.117	0.356
-415.428	197.410	0.034	0.052
-414.413	-24.548	0.167	-0.098
-413.398	282.132	0.074	-0.131
-412.384	-5.184	0.125	-0.085
-411.369	800.000	0.100	0.358
-410.355	46.839	0.153	0.141
-409.340	26.278	0.258	0.214
-408.325	-33.292	-0.163	-0.089
-407.311	800.000	0.147	0.613
-406.296	-99.941	0.357	0.088
-405.282	-200.000	-0.002	-0.244
-404.267	194.376	0.111	-0.167
-403.252	800.000	0.058	-0.215
-402.238	-24.559	-0.138	0.081
-401.223	-200.000	0.020	0.096
-400.209	34.005	0.154	0.133
-399.194	-200.000	0.004	0.191
-398.179	-104.459	-0.279	-0.064
-397.165	313.961	-0.103	-0.192
-396.150	218.510	0.068	-0.107
-395.136	-200.000	0.040	-0.414
-394.121	-152.248	0.131	0.009
-393.106	-200.000	-0.005	0.124
-392.092	34.209	-0.311	0.269
-391.077	-19.176	0.302	0.185
-390.063	-200.000	0.058	0.260
-389.048	213.654	-0.253	0.395
-388.033	342.356	-0.005	-0.009
-387.019	-123.150	0.217	-0.034
-386.004	-112.762	-0.338	-0.066
-384.990	-23.716	0.046	0.027
-383.975	800.000	-0.153	-0.423
-382.960	-32.558	0.241	-0.133
-381.946	-200.000	0.018	-0.397
-380.931	77.943	-0.171	0.181
-379.917	292.770	0.162	-0.292
-378.902	301.526	0.087	-0.158
-377.888	-127.683	0.283	-0.041
-376.873	152.610	0.122	0.164
-375.858	-53.429	-0.110	0.050
-374.844	-71.539	0.352	-0.130
-373.829	-90.323	0.182	-0.052
-372.815	21.645	-0.154	-0.124
-371.800	-7.180	-0.240	0.161
-370.785	-23.821	-0.037	0.022
-369.771	-200.000	-0.016	-0.245
-368.756	130.335	0.141	-0.178
-367.742	-200.000	0.051	0.343
-366.727	621.976	0.171	-0.424
-365.712	800.000	-0.080	0.255
-364.698	-110.170	0.129	-0.027
-363.683	-200.000	0.033	0.298
-362.669	-152.785	-0.130	0.009
-361.654	-103.239	0.193	0.045
-360.639	58.643	0.180	-0.175
-359.625	-41.402	-0.157	0.080
-358.610	-140.468	0.187	-0.019
-357.596	-103.936	-0.312	-0.072
-356.581	-186.374	0.651	-0.009
-355.566	91.962	0.228	0.254
-354.552	-200.000	0.005	0.024
-353.537	37.368	0.258	-0.226
-352.523	-108.119	0.246	0.053
-351.508	-67.906	-0.238	0.092
-350.493	-165.387	-0.214	-0.009
-349.479	601.212	-0.048	-0.118
-348.464	-52.802	0.299	0.136
-347.450	47.710	-0.215	0.199
-346.435	28.112	-0.130	-0.109
-345.420	228.972	0.212	-0.341
-344.406	-92.908	0.110	0.030
-343.391	-200.000	-0.034	-0.336
-342.377	7.812	0.128	-0.094
-341.362	36.421	-0.126	-0.110
-340.348	-44.487	-0.051	0.025
-339.333	-154.147	-0.311	-0.021
-338.318	-27.416	-0.365	0.210
-337.304	45.240	0.324	0.295
-336.289	-200.000	0.031	0.356
-335.275	46.733	-0.115	0.105
-334.260	-152.773	0.295	-0.021
-333.245	221.826	0.089	-0.141
-332.231	63.739	-0.069	-0.068
-331.216	118.024	-0.129	-0.157
-330.202	-153.676	-0.108	-0.007
-329.187	369.127	0.145	0.289
-328.172	93.629	-0.166	0.186
-327.158	151.910	0.046	-0.062
-326.143	-158.568	-0.082	-0.005
-325.129	-200.000	-0.034	-0.318
-324.114	245.598	-0.132	-0.219
-323.099	260.438	0.093	-0.158
-322.085	-200.000	0.046	0.201
-321.070	-167.919	0.138	-0.005
-320.056	5.636	-0.243	-0.177
-319.041	-200.000	-0.012	0.069
-318.026	-154.185	0.084	0.006
-317.012	-150.567	0.297	0.022
-315.997	157.407	0.139	-0.189
-314.983	-88.649	-0.079	-0.023
-313.968	440.798	-0.081	0.175
-312.953	68.386	0.092	-0.093
-311.939	-121.200	0.067	0.011
-310.924	-12.783	0.183	-0.118
-309.910	671.004	-0.011	0.028
-308.895	280.765	0.124	-0.218
-307.880	674.104	-0.100	-0.256
-306.866	128.931	-0.070	-0.088
-305.851	800.000	0.013	0.036
-304.837	800.000	0.136	0.481
-303.822	-41.529	-0.294	0.149
-302.807	-78.368	0.198	-0.067
-301.793	33.980	0.091	-0.078
-300.778	85.328	-0.108	-0.117
-299.764	594.467	0.099	-0.242
-298.749	152.571	-0.157	-0.211
-297.735	401.458	-0.053	-0.109
-296.720	-0.679	-0.222	0.155
-295.705	-200.000	0.039	-0.226
-294.691	-91.767	0.059	-0.016
-293.676	230.288	-0.155	-0.251
-292.662	267.512	-0.083	0.144
-291.647	341.575	-0.081	-0.157
-290.632	322.507	0.130	-0.244
-289.618	-59.726	-0.009	0.004
-288.603	-87.918	0.214	-0.063
-287.589	800.000	-0.069	-0.225
-286.574	-187.368	-0.156	-0.002
-285.559	81.823	0.048	-0.051
-284.545	-94.386	-0.222	0.060
-283.530	68.692	-0.120	-0.122
-282.516	-200.000	-0.001	0.193
-281.501	-200.000	-0.012	0.141
-280.486	-171.344	0.261	-0.009
-279.472	-200.000	-0.011	-0.124
-278.457	-200.000	-0.018	0.091
-277.443	77.985	0.233	-0.244
-276.428	766.559	-0.119	-0.320
-275.413	119.357	0.169	0.206
-274.399	19.623	-0.052	0.041
-273.384	800.000	0.067	-0.190
-272.370	62.417	0.230	0.226
-271.355	-103.679	0.444	-0.103
-270.340	800.000	0.053	0.194
-269.326	-200.000	0.016	0.089
-268.311	94.091	-0.212	0.237
-267.297	141.476	0.096	0.125
-266.282	-200.000	0.028	0.200
-265.267	800.000	0.008	0.029
-264.253	270.950	0.176	0.305
-263.238	-94.319	-0.270	0.073
-262.224	-64.673	0.278	0.111
-261.209	510.235	-0.127	0.291
-260.195	-72.559	-0.204	-0.074
-259.180	800.000	0.060	0.251
-258.165	-97.933	0.252	-0.064
-257.151	20.136	0.171	0.136
-256.136	84.514	0.119	-0.128
-255.122	-20.669	-0.139	-0.084
-254.107	-151.630	0.176	0.013
-253.092	-200.000	0.049	0.334
-252.078	11.246	-0.098	0.074
-251.063	-200.000	-0.051	0.285
-250.049	171.240	-0.144	-0.204
-249.034	363.217	0.093	0.184
-248.019	63.823	-0.286	-0.283
-247.005	556.287	0.184	0.436
-245.990	33.836	-0.179	-0.153
-244.976	-54.474	0.392	0.175
-243.961	163.159	0.239	0.331
-242.946	588.367	0.111	0.270
-241.932	-200.000	-0.038	0.442
-240.917	-16.398	-0.226	-0.141
-239.903	86.533	-0.094	0.102
-238.888	680.933	0.173	0.445
-237.873	717.597	-0.107	-0.280
-236.859	7.717	0.125	-0.092
-235.844	-200.000	0.010	0.314
-234.830	238.755	-0.094	0.154
-233.815	-109.296	-0.085	-0.018
-232.800	4.279	0.260	0.188
-231.786	-34.739	-0.153	-0.082
-230.771	-25.921	-0.180	-0.104
-229.757	-200.000	-0.019	0.402
-228.742	400.597	0.049	-0.100
-227.727	163.193	-0.246	-0.339
-226.713	265.923	-0.148	0.254
-225.698	-156.412	0.491	0.030
-224.684	-2.076	-0.250	-0.173
-223.669	-94.718	-0.260	0.069
-222.655	-54.677	0.137	0.061
-221.640	-200.000	0.063	0.444
-220.625	-200.000	-0.026	-0.179
-219.611	800.000	0.090	0.339
-218.596	800.000	0.048	-0.136
-217.582	-97.563	0.070	-0.018
-216.567	14.329	-0.225	0.172
-215.552	718.532	0.039	-0.101
-214.538	-200.000	0.024	0.134
-213.523	8.915	0.161	0.120
-212.509	-27.052	0.178	0.102
-211.494	261.879	-0.157	0.268
-210.479	-200.000	-0.039	0.471
-209.465	800.000	-0.080	0.276
-208.450	221.080	-0.087	0.138
-207.436	-200.000	0.005	-0.093
-206.421	-0.140	-0.144	0.101
-205.406	-96.030	-0.147	0.038
-204.392	-172.264	0.252	-0.008
-203.377	-75.498	0.249	0.087
-202.363	15.114	-0.230	0.177
-201.348	-16.727	0.388	-0.241
-200.333	-158.459	-0.343	0.020
-199.319	-200.000	0.021	0.359
-198.304	60.836	0.141	-0.137
-197.290	-96.521	-0.203	-0.053
-196.275	-200.000	0.051	0.389
-195.260	121.279	0.168	0.206
-194.246	175.704	-0.069	0.099
-193.231	-47.582	-0.344	0.164
-192.217	-116.171	0.240	-0.044
-191.202	-200.000	-0.040	-0.258
-190.187	-41.292	-0.224	-0.114
-189.173	-111.695	0.148	0.030
-188.158	287.123	-0.087	-0.154
-187.144	57.026	0.104	0.099
-186.129	54.361	-0.315	0.298
-185.114	-59.711	0.196	-0.082
-184.100	-80.819	-0.151	0.049
-183.085	-167.226	-0.101	0.004
-182.071	-10.686	0.144	0.093
-181.056	204.879	0.178	-0.271
-180.042	150.721	-0.136	0.181
-179.027	417.051	-0.091	0.192
-178.012	17.644	0.178	0.139
-176.998	-113.495	0.115	-0.022
-175.983	-200.000	-0.041	0.227
-174.969	-107.953	-0.271	0.058
-173.954	-156.124	0.349	-0.022
-172.939	-45.637	-0.073	-0.035
-171.925	111.344	-0.211	0.250
-170.910	-10.168	-0.119	-0.077
-169.896	-121.775	-0.252	-0.041
-168.881	-124.366	0.156	0.024
-167.866	-157.811	-0.223	-0.013
-166.852	800.000	0.045	0.169
-165.837	-119.371	0.376	-0.064
-164.823	-9.066	-0.073	0.048
-163.808	-95.846	0.347	-0.091
-162.793	6.458	-0.261	-0.190
-161.779	-200.000	-0.042	0.192
-160.764	-55.400	-0.235	0.104
-159.750	485.559	-0.110	0.245
-158.735	400.708	0.141	-0.290
-157.720	5.258	-0.228	-0.165
-156.706	-103.828	0.192	0.044
-155.691	766.208	-0.068	-0.180
-154.677	800.000	-0.101	0.287
-153.662	-200.000	-0.002	0.207
-152.647	-200.000	-0.003	0.434
-151.633	132.270	0.137	-0.173
-150.618	-160.611	0.145	0.008
-149.604	-200.000	0.041	-0.632
-148.589	-29.376	0.249	0.140
-147.574	129.030	-0.062	0.078
-146.560	-109.741	-0.194	0.040
-145.545	354.118	-0.160	0.312
-144.531	-152.923	0.354	0.025
-143.516	173.113	-0.067	0.094
-142.502	641.338	-0.061	0.152
-141.487	-200.000	0.002	0.073
-140.472	800.000	0.057	0.225
-139.458	-74.069	-0.409	0.145
-138.443	-2.824	0.360	0.246
-137.429	-144.693	-0.017	0.002
-136.414	-200.000	-0.007	-0.060
-135.399	-200.000	-0.047	-0.268
-134.385	-128.300	0.427	0.060
-133.370	-200.000	-0.023	0.193
-132.356	-200.000	0.005	0.179
-131.341	-30.775	-0.079	0.044
-130.326	277.523	-0.113	0.197
-129.312	466.821	0.070	-0.155
-128.297	-200.000	0.024	0.283
-127.283	-1.692	0.098	0.067
-126.268	699.285	0.114	0.295
-125.253	83.735	-0.024	-0.026
-124.239	-37.410	-0.317	0.166
-123.224	-19.589	0.048	0.029
-122.210	244.585	-0.093	-0.153
