DTS Sentinel unit serial number:	SN413079Multiplexer serial number:	ORYXHardware model number:	OX4-SRSoftware version number:	ORYX F/W v4.00 Oryx Data Collector v3.7.2.0data status	okinstallation	princeton_trtdifferential loss correction	single-endedforward channel	channel 1reverse channel	N/Adate	2019/09/12time	18:29:34forward acquisition time	15.00reverse acquisition time	0.00gamma	496.2192k internal	0.2318k external	0.2318temperature offset calibration	1.0108default loss term (dB/km)	0.3790temperature slope calibration	1.0000multiplexer offset coefficient	1.0000multiplexer slope coefficient	1.0000fibre end	0.00T internal ref (°C)	33.25T ext. ref 1 (°C)	2.96T ext. ref 2 (°C)	27.86length (m)	temperature (°C)	Stokes	anti-Stokes-747.200	447.388	0.196	-0.437
-746.185	-123.096	-0.508	0.083
-745.171	-200.000	-0.037	0.186
-744.156	-71.495	-0.216	-0.082
-743.142	-169.543	0.237	0.009
-742.127	376.699	-0.331	0.684
-741.112	22.968	0.298	0.247
-740.098	-48.646	0.079	0.038
-739.083	-200.000	-0.118	0.623
-738.069	-200.000	-0.017	0.105
-737.054	-128.063	0.274	0.040
-736.039	132.682	-0.442	0.577
-735.025	-56.605	0.391	0.175
-734.010	-119.614	-0.465	0.081
-732.996	-200.000	0.018	-1.091
-731.981	-114.031	1.188	-0.233
-730.966	-5.832	-0.349	-0.242
-729.952	-200.000	0.121	-0.791
-728.937	-38.983	-0.174	0.092
-727.923	124.705	-0.352	-0.448
-726.908	172.843	0.290	-0.422
-725.894	-5.766	-0.528	-0.366
-724.879	-74.983	-0.453	-0.164
-723.864	734.484	-0.267	0.723
-722.850	345.892	-0.141	0.281
-721.835	307.362	-0.218	0.410
-720.821	-133.818	0.778	0.098
-719.806	-38.468	0.045	-0.024
-718.791	-110.344	-0.840	-0.177
-717.777	-200.000	-0.080	-0.691
-716.762	7.952	-0.672	0.510
-715.748	-200.000	-0.050	-0.414
-714.733	-173.352	-0.406	-0.012
-713.718	503.447	0.219	-0.512
-712.704	-0.419	-0.295	0.212
-711.689	78.987	-0.201	-0.218
-710.675	-200.000	-0.119	-0.631
-709.660	321.160	0.150	0.287
-708.645	-200.000	0.164	0.944
-707.631	800.000	-0.098	0.432
-706.616	800.000	0.088	-0.304
-705.602	-143.306	-0.557	0.054
-704.587	35.707	0.310	-0.275
-703.572	573.617	0.132	0.325
-702.558	3.379	-0.685	-0.504
-701.543	-200.000	0.085	-0.948
-700.529	-84.242	-0.498	0.159
-699.514	800.000	0.299	-1.064
-698.499	30.959	0.248	-0.215
-697.485	21.593	-0.173	-0.143
-696.470	800.000	0.230	0.660
-695.456	-157.759	-0.999	-0.060
-694.441	-93.838	0.413	0.115
-693.426	-122.392	-0.357	-0.059
-692.412	-192.986	-0.968	-0.009
-691.397	4.704	0.863	-0.640
-690.383	27.739	0.426	-0.362
-689.368	-200.000	-0.001	0.718
-688.354	-148.538	-0.684	-0.056
-687.339	-181.627	0.799	0.016
-686.324	800.000	0.029	-0.085
-685.310	-76.146	0.631	0.225
-684.295	-200.000	-0.014	-0.886
-683.281	-200.000	0.103	-0.956
-682.266	35.628	0.754	-0.669
-681.251	-180.948	0.318	-0.006
-680.237	800.000	-0.237	-0.690
-679.222	-8.358	-1.076	-0.731
-678.208	-200.000	0.059	-0.818
-677.193	-68.700	0.760	-0.297
-676.178	-200.000	-0.016	-0.159
-675.164	57.149	-0.285	0.281
-674.149	-16.019	-0.563	0.362
-673.135	-49.672	-0.465	-0.223
-672.120	-76.161	-0.401	0.143
-671.105	19.366	0.579	0.470
-670.091	-200.000	-0.084	0.401
-669.076	23.046	0.425	-0.352
-668.062	-112.888	0.324	-0.065
-667.047	-132.344	1.200	-0.156
-666.032	-60.567	0.397	0.170
-665.018	24.026	0.507	-0.422
-664.003	-200.000	-0.081	-0.639
-662.989	-131.422	-0.631	-0.084
-661.974	-181.560	0.502	0.010
-660.959	122.123	-0.383	0.482
-659.945	800.000	0.070	0.207
-658.930	800.000	0.153	0.583
-657.916	-68.076	-0.758	-0.298
-656.901	539.747	0.355	0.852
-655.886	-42.894	0.607	-0.311
-654.872	-50.433	-0.139	-0.066
-653.857	24.884	-0.128	0.107
-652.843	121.569	-0.416	-0.523
-651.828	169.016	0.197	-0.283
-650.814	-69.534	-0.502	0.194
-649.799	68.763	-0.324	0.335
-648.784	-97.753	0.658	0.172
-647.770	114.742	-0.463	0.569
-646.755	132.891	-0.537	-0.699
-645.741	272.119	0.307	-0.545
-644.726	-78.052	0.455	0.158
-643.711	800.000	-0.134	0.373
-642.697	10.203	-0.060	0.046
-641.682	222.300	0.334	0.541
-640.668	24.948	-0.200	-0.167
-639.653	-7.625	0.162	-0.111
-638.638	-39.882	0.035	0.019
-637.624	-200.000	0.023	-0.852
-636.609	-104.222	-0.559	0.131
-635.595	-3.362	0.644	0.452
-634.580	159.063	0.123	-0.172
-633.565	117.891	-0.521	-0.647
-632.551	-200.000	-0.009	-0.678
-631.536	-96.707	-0.302	0.080
-630.522	302.881	-0.454	-0.847
-629.507	289.664	-0.478	-0.875
-628.492	-59.902	0.125	0.054
-627.478	61.196	0.433	-0.433
-626.463	64.050	-0.170	-0.173
-625.449	-102.096	0.417	0.101
-624.434	515.371	0.180	-0.423
-623.419	91.676	-0.387	-0.438
-622.405	800.000	-0.226	-0.629
-621.390	800.000	-0.288	1.034
-620.376	-36.384	0.484	0.263
-619.361	-200.000	0.096	-0.557
-618.346	85.751	-0.307	0.340
-617.332	51.560	-0.639	-0.611
-616.317	192.568	-0.035	0.053
-615.303	-95.922	-0.381	0.102
-614.288	-48.417	1.102	0.534
-613.273	-34.697	-0.421	-0.232
-612.259	-61.450	0.464	0.197
-611.244	800.000	-0.077	0.315
-610.230	-87.210	-0.754	0.231
-609.215	800.000	-0.165	-0.469
-608.201	278.733	0.014	-0.025
-607.186	-54.678	0.397	-0.181
-606.171	-159.976	-0.284	-0.016
-605.157	455.356	-0.054	-0.120
-604.142	-36.566	0.345	0.187
-603.128	-200.000	-0.021	0.803
-602.113	-200.000	-0.017	0.099
-601.098	271.207	0.335	-0.594
-600.084	-185.566	0.934	-0.014
-599.069	170.442	-0.479	0.690
-598.055	120.171	0.489	0.611
-597.040	-151.702	-0.220	0.016
-596.025	-31.169	0.433	-0.246
-595.011	630.796	0.281	-0.715
-593.996	-55.413	0.464	-0.210
-592.982	-71.961	0.187	-0.070
-591.967	88.446	0.390	0.436
-590.952	48.479	0.533	0.503
-589.938	-73.036	0.394	-0.146
-588.923	251.148	-0.281	0.480
-587.909	199.171	0.232	0.357
-586.894	800.000	0.109	0.374
-585.879	800.000	0.200	-0.671
-584.865	205.293	0.191	-0.299
-583.850	-185.104	0.638	-0.010
-582.836	-68.603	0.910	0.354
-581.821	229.381	-0.231	-0.380
-580.806	-99.240	-0.500	-0.127
-579.792	194.865	-0.261	0.398
-578.777	31.884	0.596	0.516
-577.763	158.183	-0.473	0.659
-576.748	46.109	0.295	-0.274
-575.733	-200.000	0.052	0.514
-574.719	61.482	-0.474	0.474
-573.704	-61.469	-0.032	0.014
-572.690	571.372	-0.195	0.477
-571.675	-58.140	-0.461	0.202
-570.661	-127.725	0.994	-0.144
-569.646	198.376	0.378	0.581
-568.631	-200.000	-0.077	0.494
-567.617	-14.291	-0.092	-0.060
-566.602	67.731	0.238	-0.244
-565.588	800.000	-0.156	-0.632
-564.573	-87.469	0.254	0.077
-563.558	-70.911	-0.315	-0.119
-562.544	27.459	-0.513	0.433
-561.529	800.000	0.174	-0.507
-560.515	-200.000	-0.036	0.912
-559.500	35.474	-0.680	0.600
-558.485	555.931	0.115	-0.278
-557.471	800.000	0.200	-0.690
-556.456	-11.951	0.455	0.300
-555.442	-200.000	0.019	0.326
-554.427	-71.353	-0.382	0.144
-553.412	-115.182	-0.542	0.103
-552.398	298.407	-0.497	0.918
-551.383	0.317	0.314	0.225
-550.369	-52.340	1.299	-0.604
-549.354	-200.000	0.063	-0.391
-548.339	-115.266	0.929	0.176
-547.325	-200.000	-0.040	0.300
-546.310	-121.925	-0.441	0.073
-545.296	-84.291	0.397	-0.126
-544.281	-42.509	-0.591	0.303
-543.266	-74.213	0.145	-0.053
-542.252	-138.559	0.353	0.039
-541.237	749.641	0.150	-0.406
-540.223	-101.007	-0.831	0.205
-539.208	-200.000	0.026	0.166
-538.193	78.768	0.380	-0.408
-537.179	-81.460	0.605	-0.200
-536.164	-50.199	-0.382	0.181
-535.150	149.850	0.738	1.004
-534.135	-200.000	0.082	0.436
-533.121	-120.258	-0.389	-0.067
-532.106	-152.444	-0.506	0.037
-531.091	405.493	-0.065	0.138
-530.077	91.626	0.717	0.809
-529.062	-32.789	-0.952	-0.531
-528.048	35.929	-0.575	-0.508
-527.033	-113.993	-0.483	-0.094
-526.018	281.373	0.056	-0.100
-525.004	214.837	0.274	-0.435
-523.989	225.720	0.336	0.547
-522.975	482.189	-0.143	0.327
-521.960	-66.576	0.572	-0.228
-520.945	23.848	0.366	-0.303
-519.931	-200.000	-0.025	-0.187
-518.916	78.822	-0.174	0.187
-517.902	-65.128	-1.235	0.500
-516.887	-103.550	-0.542	0.128
-515.872	-86.010	0.629	0.195
-514.858	215.711	0.541	-0.862
-513.843	-173.676	-0.330	-0.010
-512.829	37.761	0.272	-0.243
-511.814	-64.151	-0.372	-0.152
-510.799	-47.481	0.362	0.177
-509.785	-183.749	-0.129	-0.002
-508.770	81.030	0.678	-0.734
-507.756	137.507	-0.324	-0.425
-506.741	-96.246	0.238	-0.063
-505.726	452.935	-0.399	0.886
-504.712	91.644	-0.240	-0.271
-503.697	-8.779	-0.228	0.153
-502.683	118.106	-0.648	0.800
-501.668	116.158	-0.106	-0.130
-500.653	-70.003	0.642	0.245
-499.639	-12.488	0.044	-0.029
-498.624	-200.000	-0.026	0.194
-497.610	-200.000	0.011	-0.136
-496.595	-200.000	0.002	0.029
-495.581	-200.000	0.180	-0.998
-494.566	-7.238	-0.255	0.173
-493.551	-25.402	0.556	-0.330
-492.537	227.057	-0.131	-0.213
-491.522	-200.000	0.065	-0.459
-490.508	-200.000	0.064	-0.534
-489.493	-1.782	-0.509	-0.359
-488.478	-200.000	-0.259	0.000
-487.464	-164.138	-0.396	0.018
-486.449	-9.536	0.669	0.447
-485.435	-138.183	-0.198	0.022
-484.420	-77.690	-0.244	-0.084
-483.405	645.986	0.015	-0.039
-482.391	-200.000	-0.017	-0.521
-481.376	-66.192	-1.309	-0.523
-480.362	800.000	-0.146	-0.632
-479.347	-60.726	-0.308	-0.131
-478.332	213.511	0.282	-0.447
-477.318	-200.000	0.018	0.136
-476.303	57.536	-0.536	-0.525
-475.289	800.000	0.113	0.411
-474.274	-168.194	0.497	-0.019
-473.259	97.588	0.410	-0.472
-472.245	257.191	0.354	0.609
-471.230	-70.695	0.921	0.348
-470.216	68.903	-0.394	0.405
-469.201	156.249	0.440	-0.608
-468.186	192.690	0.140	-0.212
-467.172	195.389	0.333	0.507
-466.157	-59.039	-1.062	-0.459
-465.143	169.078	0.047	-0.067
-464.128	268.729	0.320	-0.562
-463.113	-81.859	0.169	-0.055
-462.099	8.819	-0.754	-0.569
-461.084	-90.882	-0.416	0.120
-460.070	258.982	0.456	0.787
-459.055	800.000	0.101	0.356
-458.040	616.344	-0.058	0.145
-457.026	70.586	-0.378	-0.391
-456.011	-98.171	0.540	0.139
-454.997	340.870	0.135	0.263
-453.982	800.000	0.191	-0.613
-452.968	296.975	-0.236	-0.433
-451.953	-0.307	-0.326	-0.232
-450.938	-200.000	-0.017	-0.565
-449.924	-200.000	0.056	-0.628
-448.909	-112.940	-0.982	0.195
-447.895	-157.370	-0.242	0.015
-446.880	-142.688	0.557	0.054
-445.865	1.465	-0.467	0.336
-444.851	-127.457	0.327	-0.047
-443.836	-70.375	-0.016	-0.006
-442.822	-200.000	-0.195	-0.905
-441.807	-56.126	-0.388	-0.173
-440.792	-200.000	-0.088	0.796
-439.778	310.651	0.693	1.297
-438.763	75.428	0.541	-0.571
-437.749	-38.910	0.295	0.155
-436.734	750.099	0.246	-0.664
-435.719	-200.000	-0.016	-0.381
-434.705	172.021	0.412	0.592
-433.690	39.902	-0.439	0.395
-432.676	26.889	-0.539	0.452
-431.661	628.701	0.123	0.310
-430.646	-132.721	-0.175	-0.022
-429.632	-119.513	-0.954	-0.165
-428.617	-163.395	-0.498	-0.024
-427.603	-118.218	0.230	-0.041
-426.588	-4.934	0.482	0.332
-425.573	46.274	-0.311	-0.289
-424.559	-73.404	0.214	-0.078
-423.544	-154.760	0.305	-0.020
-422.530	243.803	0.166	0.279
-421.515	-48.596	-0.239	-0.115
-420.500	-81.919	0.400	0.131
-419.486	-69.483	-0.861	0.330
-418.471	100.768	-0.651	-0.756
-417.457	-200.000	0.026	0.241
-416.442	800.000	0.095	-0.350
-415.428	-52.134	-0.211	0.098
-414.413	456.096	-0.104	-0.232
-413.398	-200.000	0.045	-0.206
-412.384	90.022	-0.274	0.306
-411.369	800.000	0.131	-0.425
-410.355	-10.438	-0.342	-0.226
-409.340	153.244	0.163	-0.223
-408.325	800.000	-0.182	-0.527
-407.311	222.481	0.446	-0.718
-406.296	70.655	-0.448	-0.463
-405.282	116.464	-0.209	-0.256
-404.267	-200.000	-0.024	0.321
-403.252	800.000	0.140	0.494
-402.238	288.442	-0.229	0.413
-401.223	95.265	-0.434	0.494
-400.209	-112.451	0.279	-0.056
-399.194	75.028	-0.810	0.852
-398.179	-38.009	0.477	0.253
-397.165	403.794	0.349	0.733
-396.150	-139.900	0.706	-0.075
-395.136	174.064	0.260	0.374
-394.121	430.415	-0.094	0.203
-393.106	800.000	-0.057	0.207
-392.092	131.006	0.591	-0.757
-391.077	0.058	-0.450	0.320
-390.063	-63.161	-0.684	-0.282
-389.048	107.392	-0.155	0.184
-388.033	-186.644	0.413	0.006
-387.019	4.858	0.638	0.468
-386.004	183.196	0.202	0.298
-384.990	194.211	0.394	0.596
-383.975	-200.000	-0.084	-0.627
-382.960	36.042	-0.589	0.517
-381.946	16.881	0.259	-0.205
-380.931	800.000	0.069	0.221
-379.917	-103.274	0.706	-0.166
-378.902	-9.882	-0.479	0.318
-377.888	-102.030	0.367	-0.088
-376.873	717.227	0.181	-0.480
-375.858	-148.848	-0.786	-0.063
-374.844	36.879	-0.410	-0.362
-373.829	-33.100	0.276	-0.153
-372.815	-91.672	0.506	0.144
-371.800	-44.803	0.383	-0.191
-370.785	359.996	0.143	-0.285
-369.771	91.088	-0.201	0.225
-368.756	-89.895	0.429	-0.125
-367.742	-156.924	0.505	-0.031
-366.727	-23.394	0.645	-0.386
-365.712	466.283	-0.353	0.788
-364.698	-2.464	-0.691	-0.482
-363.683	-200.000	-0.025	0.127
-362.669	-200.000	0.010	-0.579
-361.654	124.941	0.102	-0.129
-360.639	-158.856	-0.704	0.040
-359.625	-200.000	0.018	-0.214
-358.610	-84.505	0.385	-0.121
-357.596	-45.487	0.577	-0.285
-356.581	-47.272	-0.429	0.208
-355.566	-200.000	0.021	-0.497
-354.552	192.091	-0.092	-0.138
-353.537	121.026	0.302	0.375
-352.523	-10.917	-0.145	0.096
-351.508	-26.768	-0.235	-0.137
-350.493	-200.000	-0.002	0.382
-349.479	109.560	-0.200	-0.238
-348.464	19.009	-0.540	-0.432
-347.450	-103.720	-0.302	0.071
-346.435	12.150	-0.424	-0.325
-345.420	-165.610	-0.414	-0.018
-344.406	-97.160	-0.088	0.023
-343.391	5.983	-0.471	0.348
-342.377	-200.000	-0.021	0.483
-341.362	-3.606	-0.270	-0.187
-340.348	-48.410	-0.375	0.180
-339.333	219.753	0.131	-0.209
-338.318	-200.000	-0.004	0.290
-337.304	65.459	-0.082	0.082
-336.289	800.000	-0.173	-0.588
-335.275	260.293	0.151	-0.261
-334.260	800.000	0.074	0.284
-333.245	-200.000	-0.060	0.935
-332.231	20.337	0.728	-0.586
-331.216	-78.049	0.405	0.139
-330.202	-171.130	-0.301	-0.010
-329.187	800.000	-0.093	-0.369
-328.172	218.119	0.166	-0.264
-327.158	-15.050	-0.401	-0.256
-326.143	-96.219	0.437	0.115
-325.129	-200.000	0.024	0.576
-324.114	-143.644	-0.725	-0.069
-323.099	-72.688	0.237	0.087
-322.085	-200.000	0.039	0.862
-321.070	-141.682	-0.119	-0.012
-320.056	800.000	-0.286	-0.893
-319.041	266.053	0.207	-0.359
-318.026	-26.621	-0.263	0.153
-317.012	13.780	-0.249	0.193
-315.997	-150.114	-0.081	0.006
-314.983	-48.168	-0.578	0.278
-313.968	225.205	-0.178	-0.287
-312.953	-200.000	-0.153	-0.947
-311.939	-171.431	0.279	-0.009
-310.924	-200.000	0.019	0.981
-309.910	749.417	-0.131	0.352
-308.895	-200.000	0.040	0.215
-307.880	-82.542	0.353	-0.114
-306.866	-64.077	-0.227	0.092
-305.851	56.670	0.121	0.118
-304.837	-153.214	1.257	0.087
-303.822	-200.000	-0.068	-0.646
-302.807	800.000	-0.214	-0.657
-301.793	158.171	-0.348	-0.480
-300.778	500.253	-0.237	-0.543
-299.764	-200.000	-0.047	-0.539
-298.749	-137.381	-0.341	-0.038
-297.735	-1.217	0.519	0.365
-296.720	243.962	0.432	0.721
-295.705	-114.484	0.773	-0.148
-294.691	-32.689	-0.478	-0.264
-293.676	-152.074	0.836	0.060
-292.662	-32.315	0.413	-0.229
-291.647	-95.705	-0.612	0.163
-290.632	-92.886	0.437	-0.121
-289.618	-169.417	-0.453	0.017
-288.603	-200.000	0.119	-0.606
-287.589	-83.136	0.813	-0.260
-286.574	-106.625	-0.479	-0.106
-285.559	176.852	-0.286	0.413
-284.545	800.000	0.235	0.730
-283.530	94.095	-0.234	0.264
-282.516	-116.023	0.320	-0.059
-281.501	-135.449	0.141	0.017
-280.486	206.104	-0.100	0.155
-279.472	-147.590	0.726	0.061
-278.457	310.823	0.356	-0.664
-277.443	-111.435	0.262	0.053
-276.428	-52.015	-0.288	0.133
-275.413	504.897	0.107	-0.246
-274.399	483.392	-0.134	0.303
-273.384	800.000	0.117	-0.399
-272.370	-166.710	0.144	0.006
-271.355	99.098	-0.573	0.658
-270.340	-120.278	-0.451	-0.076
-269.326	-99.122	0.433	0.109
-268.311	-55.761	-0.387	-0.172
-267.297	-127.521	-0.368	0.053
-266.282	63.788	-0.147	-0.147
-265.267	338.527	0.155	0.300
-264.253	-168.841	0.311	0.012
-263.238	-163.510	0.417	-0.020
-262.224	800.000	-0.180	-0.563
-261.209	-123.240	0.849	0.135
-260.195	-99.376	-0.490	0.123
-259.180	-69.365	0.390	-0.149
-258.165	-143.184	-0.646	-0.062
-257.151	-200.000	0.028	0.164
-256.136	800.000	-0.219	0.702
-255.122	630.839	-0.250	0.627
-254.107	800.000	0.086	-0.286
-253.092	101.790	-0.246	-0.285
-252.078	-181.718	0.354	-0.007
-251.063	114.764	0.352	0.426
-250.049	85.565	0.347	0.379
-249.034	301.034	-0.376	-0.689
-248.019	800.000	0.067	0.281
-247.005	-165.135	-0.507	0.022
-245.990	-200.000	-0.000	0.294
-244.976	264.114	-0.148	-0.256
-243.961	-47.872	-0.381	0.183
-242.946	249.441	0.533	0.897
-241.932	-49.426	0.465	0.220
-240.917	19.648	0.599	0.479
-239.903	-200.000	0.004	0.091
-238.888	148.615	-0.420	0.563
-237.873	104.816	-0.337	0.394
-236.859	3.873	-0.643	-0.466
-235.844	-101.654	-0.581	0.140
-234.830	-200.000	0.011	0.277
-233.815	463.113	0.362	-0.801
-232.800	-200.000	0.088	-0.664
-231.786	-200.000	0.070	0.541
-230.771	220.068	0.563	0.894
-229.757	-12.421	-0.444	0.288
-228.742	104.083	0.085	0.099
-227.727	-200.000	1.068	0.005
-226.713	-21.824	0.561	0.339
-225.698	-200.000	-0.112	-0.790
-224.684	-200.000	-0.073	0.462
-223.669	-25.751	-0.569	0.333
-222.655	-140.680	0.691	-0.071
-221.640	-106.588	-0.538	0.119
-220.625	-13.176	-0.315	-0.203
-219.611	308.060	0.274	0.507
-218.596	17.683	-0.281	-0.221
-217.582	-53.330	0.178	-0.081
-216.567	-166.565	-0.772	0.032
-215.552	-200.000	-0.059	-0.333
-214.538	-200.000	-0.055	0.357
-213.523	785.416	0.035	0.094
-212.509	212.301	-0.610	-0.953
-211.494	-16.828	0.584	0.366
-210.479	593.262	-0.194	-0.475
-209.465	624.444	-0.202	0.504
-208.450	-69.151	0.515	-0.196
-207.436	565.296	0.354	-0.850
-206.421	41.054	-0.569	-0.510
-205.406	800.000	0.082	-0.269
-204.392	-33.339	-0.413	0.226
-203.377	-200.000	-0.050	0.275
-202.363	-18.242	-0.592	0.367
-201.348	-200.000	-0.041	-1.253
-200.333	-70.850	0.505	0.189
-199.319	143.916	-0.557	-0.736
-198.304	-174.315	-0.136	-0.004
-197.290	76.196	0.026	0.028
-196.275	-71.595	0.650	-0.241
-195.260	212.489	0.417	0.651
-194.246	2.591	-0.810	-0.582
-193.231	-102.294	-1.053	0.250
-192.217	40.152	-0.360	-0.321
-191.202	388.165	0.337	0.690
-190.187	-95.407	-0.822	-0.219
-189.173	-200.000	0.031	-0.497
-188.158	3.222	-0.387	-0.279
-187.144	-25.028	0.260	0.153
-186.129	47.027	0.354	-0.326
-185.114	-29.008	0.754	0.428
-184.100	-200.000	-0.018	0.086
-183.085	-200.000	0.087	0.711
-182.071	-56.208	0.618	0.272
-181.056	800.000	0.164	0.485
-180.042	800.000	0.249	0.725
-179.027	-162.211	0.510	0.025
-178.012	-200.000	0.069	0.514
-176.998	-116.722	0.501	-0.091
-175.983	25.269	-0.534	0.439
-174.969	-126.838	-0.520	-0.076
-173.954	-83.936	-1.059	-0.333
-172.939	107.759	-0.567	0.669
-171.925	73.747	0.590	-0.612
-170.910	-200.000	0.043	-0.854
-169.896	-67.043	-0.195	0.076
-168.881	-200.000	-0.044	0.461
-167.866	-74.576	-0.211	-0.075
-166.852	-53.448	-0.630	-0.285
-165.837	278.971	0.643	1.136
-164.823	41.083	0.395	-0.353
-163.808	-113.767	0.431	-0.083
-162.793	-200.000	-0.140	-0.696
-161.779	-89.669	0.478	0.139
-160.764	-58.129	0.668	0.288
-159.750	57.667	0.621	-0.600
-158.735	290.688	0.151	-0.272
-157.720	800.000	0.060	-0.168
-156.706	48.043	0.228	0.211
-155.691	192.729	-0.536	0.800
-154.677	102.998	0.264	-0.306
-153.662	481.239	-0.088	-0.198
-152.647	27.062	-0.264	0.219
-151.633	-33.983	-0.256	0.139
-150.618	800.000	-0.209	0.717
-149.604	1.977	0.225	-0.160
-148.589	-140.755	-0.363	0.037
-147.574	186.383	-0.185	-0.273
-146.560	800.000	-0.197	-0.559
-145.545	18.230	-0.320	-0.253
-144.531	-91.889	0.517	0.145
-143.516	-200.000	0.218	0.001
-142.502	75.362	-0.381	0.397
-141.487	800.000	-0.178	-0.490
-140.472	800.000	0.194	-0.764
-139.458	594.063	0.243	0.595
-138.443	72.607	0.029	-0.030
-137.429	-44.114	0.433	-0.215
-136.414	4.464	0.187	0.135
-135.399	14.139	0.339	-0.261
-134.385	-200.000	-0.037	-0.369
-133.370	-1.889	-0.279	0.194
-132.356	225.755	0.130	0.208
-131.341	-78.950	0.680	0.229
-130.326	800.000	-0.135	-0.487
-129.312	800.000	-0.100	0.325
-128.297	-30.051	-0.102	-0.058
-127.283	-135.113	0.309	-0.037
-126.268	-82.638	-0.361	-0.115
-125.253	-200.000	0.028	0.137
-124.239	-102.267	-0.519	0.123
-123.224	-19.708	0.270	0.165
-122.210	604.600	0.525	-1.290
-121.195	48.425	-0.213	-0.197
