DTS Sentinel unit serial number:	SN413079Multiplexer serial number:	ORYXHardware model number:	OX4-SRSoftware version number:	ORYX F/W v4.00 Oryx Data Collector v3.7.2.0data status	okinstallation	princeton_trtdifferential loss correction	single-endedforward channel	channel 1reverse channel	N/Adate	2019/09/19time	03:02:35forward acquisition time	60.00reverse acquisition time	0.00gamma	496.2192k internal	0.2343k external	0.2343temperature offset calibration	1.0024default loss term (dB/km)	0.3790temperature slope calibration	1.0000multiplexer offset coefficient	1.0000multiplexer slope coefficient	1.0000fibre end	0.00T internal ref (°C)	20.81T ext. ref 1 (°C)	0.66T ext. ref 2 (°C)	14.55length (m)	temperature (°C)	Stokes	anti-Stokes-747.200	-57.663	0.176	-0.077
-746.185	283.109	-0.198	0.356
-745.171	-124.051	0.187	0.029
-744.156	800.000	-0.023	0.076
-743.142	-123.337	-0.228	-0.036
-742.127	-127.955	-0.198	0.028
-741.112	-105.744	-0.195	-0.044
-740.098	46.886	0.098	0.091
-739.083	314.820	0.057	0.107
-738.069	-102.890	0.218	-0.052
-737.054	97.332	-0.181	-0.208
-736.039	75.518	0.268	0.283
-735.025	-200.000	0.025	0.376
-734.010	123.390	-0.154	0.194
-732.996	45.726	0.232	-0.215
-731.981	800.000	-0.043	-0.165
-730.966	-66.509	-0.087	0.035
-729.952	19.459	-0.027	0.022
-728.937	-169.224	0.174	0.006
-727.923	-68.962	-0.100	0.039
-726.908	335.689	0.075	-0.146
-725.894	387.743	-0.062	-0.129
-724.879	222.892	-0.141	0.227
-723.864	-7.913	0.266	-0.180
-722.850	199.358	0.148	0.227
-721.835	-136.319	-0.003	-0.000
-720.821	-49.061	0.093	-0.044
-719.806	800.000	-0.075	-0.210
-718.791	-200.000	0.002	-0.034
-717.777	-127.049	-0.492	-0.072
-716.762	-3.734	0.134	-0.093
-715.748	56.429	0.208	0.203
-714.733	490.094	0.031	0.070
-713.718	-125.893	0.132	-0.020
-712.704	127.895	-0.322	-0.410
-711.689	-200.000	0.005	0.126
-710.675	33.838	-0.181	-0.157
-709.660	258.981	-0.127	-0.218
-708.645	-200.000	0.017	0.212
-707.631	-82.517	-0.140	0.046
-706.616	412.946	-0.122	-0.259
-705.602	22.709	0.131	0.107
-704.587	-200.000	0.107	-0.624
-703.572	148.167	-0.054	-0.073
-702.558	-1.792	0.110	0.078
-701.543	-156.893	0.133	0.008
-700.529	248.496	0.136	-0.230
-699.514	-153.299	-0.121	0.008
-698.499	800.000	0.048	0.156
-697.485	-200.000	-0.008	0.054
-696.470	-200.000	0.025	0.167
-695.456	246.795	-0.048	-0.081
-694.441	-25.760	0.105	-0.062
-693.426	202.964	-0.203	-0.313
-692.412	26.222	-0.220	-0.184
-691.397	-120.507	0.201	-0.034
-690.383	19.121	-0.356	-0.285
-689.368	-148.501	-0.332	0.027
-688.354	800.000	0.110	0.324
-687.339	137.285	-0.089	-0.116
-686.324	-44.537	0.295	0.147
-685.310	368.495	0.018	-0.036
-684.295	362.108	0.142	-0.284
-683.281	-78.932	-0.100	0.034
-682.266	344.773	0.065	-0.127
-681.251	83.517	-0.117	0.127
-680.237	41.096	-0.145	0.131
-679.222	-14.805	-0.133	-0.085
-678.208	336.087	-0.083	0.160
-677.193	-200.000	0.008	0.187
-676.178	-189.310	-0.122	-0.001
-675.164	7.089	-0.276	0.205
-674.149	-81.327	-0.278	-0.091
-673.135	36.530	-0.171	0.151
-672.120	-200.000	-0.007	0.084
-671.105	457.873	-0.080	-0.178
-670.091	-200.000	0.001	-0.182
-669.076	-98.144	0.230	-0.059
-668.062	-138.348	-0.336	0.037
-667.047	-200.000	-0.008	-0.150
-666.032	-200.000	0.053	-0.363
-665.018	-89.973	-0.428	0.125
-664.003	139.372	0.088	0.116
-662.989	175.503	-0.207	-0.299
-661.974	-54.570	-0.061	-0.028
-660.959	800.000	-0.098	-0.335
-659.945	-200.000	0.003	-0.264
-658.930	-48.547	-0.148	-0.071
-657.916	-14.211	0.180	-0.116
-656.901	363.286	0.109	-0.218
-655.886	566.648	-0.051	-0.123
-654.872	31.977	0.202	0.174
-653.857	-82.376	0.242	-0.078
-652.843	34.187	0.148	-0.129
-651.828	-101.074	-0.317	-0.077
-650.814	-43.538	-0.066	-0.033
-649.799	-167.073	0.188	0.008
-648.784	-62.502	-0.161	-0.067
-647.770	-200.000	-0.049	-0.328
-646.755	-130.728	-0.567	0.076
-645.741	-200.000	0.036	-0.454
-644.726	-65.357	-0.059	-0.024
-643.711	-200.000	-0.015	-0.069
-642.697	95.552	-0.063	-0.071
-641.682	-36.012	-0.216	0.117
-640.668	129.291	-0.172	0.219
-639.653	80.576	-0.105	0.112
-638.638	33.313	-0.247	-0.214
-637.624	-79.049	-0.224	0.076
-636.609	-13.858	0.154	0.099
-635.595	-200.000	-0.003	0.039
-634.580	-53.066	-0.083	-0.038
-633.565	79.077	-0.151	-0.161
-632.551	57.376	-0.245	0.239
-631.536	-200.000	-0.025	-0.127
-630.522	-200.000	0.036	0.308
-629.507	3.386	-0.304	0.221
-628.492	-195.557	0.324	0.002
-627.478	-83.365	0.086	0.028
-626.463	47.308	0.188	0.175
-625.449	-200.000	-0.001	0.149
-624.434	747.925	-0.093	-0.249
-623.419	-153.508	-0.095	0.007
-622.405	-108.563	0.085	0.018
-621.390	-62.876	0.206	0.085
-620.376	128.978	-0.209	-0.266
-619.361	800.000	0.073	-0.245
-618.346	69.586	-0.027	0.028
-617.332	243.473	-0.132	0.220
-616.317	82.154	0.102	0.110
-615.303	-120.430	-0.130	0.022
-614.288	-51.774	-0.182	0.084
-613.273	35.773	-0.057	0.050
-612.259	-200.000	0.027	0.139
-611.244	100.301	-0.187	0.217
-610.230	-108.513	-0.139	-0.030
-609.215	228.494	-0.153	-0.249
-608.201	-1.064	0.059	-0.041
-607.186	-58.742	0.280	0.121
-606.171	-140.457	-0.287	-0.030
-605.157	-200.000	0.006	0.029
-604.142	-63.271	-0.214	0.088
-603.128	-47.932	0.007	-0.003
-602.113	-200.000	-0.004	-0.051
-601.098	-1.506	-0.309	-0.217
-600.084	-78.585	-0.189	-0.064
-599.069	-96.247	-0.260	0.069
-598.055	-113.753	-0.135	0.026
-597.040	-200.000	-0.011	0.071
-596.025	-200.000	-0.011	-0.178
-595.011	-195.398	-0.350	0.003
-593.996	-200.000	-0.002	0.083
-592.982	-107.174	0.220	-0.048
-591.967	-157.735	-0.394	0.023
-590.952	382.963	0.063	-0.128
-589.938	-19.929	0.386	-0.237
-588.923	3.138	-0.197	0.143
-587.909	38.273	0.339	0.300
-586.894	-126.674	-0.231	-0.034
-585.879	279.682	-0.076	-0.135
-584.865	55.707	-0.007	0.007
-583.850	100.950	-0.295	-0.341
-582.836	-200.000	-0.050	-0.542
-581.821	800.000	0.016	0.049
-580.806	-140.724	0.120	0.012
-579.792	381.825	-0.150	0.307
-578.777	-154.857	-0.127	0.008
-577.763	800.000	0.081	-0.312
-576.748	-58.443	0.294	-0.127
-575.733	-200.000	0.010	-0.194
-574.719	20.410	0.149	0.120
-573.704	265.888	0.217	-0.377
-572.690	-200.000	-0.026	-0.126
-571.675	-110.320	0.102	0.021
-570.661	-95.366	0.149	0.040
-569.646	-108.217	0.278	-0.060
-568.631	-10.704	-0.269	0.177
-567.617	-129.722	0.078	0.011
-566.602	10.274	-0.270	-0.204
-565.588	-97.854	-0.327	0.084
-564.573	-151.250	-0.255	-0.019
-563.558	80.407	-0.080	-0.086
-562.544	-91.806	-0.212	0.060
-561.529	101.932	0.282	0.327
-560.515	-109.342	0.168	0.035
-559.500	-69.600	0.358	-0.136
-558.485	391.073	0.086	0.177
-557.471	-200.000	-0.023	-0.221
-556.456	-62.108	-0.242	-0.100
-555.442	364.739	0.101	0.202
-554.427	137.059	0.054	-0.071
-553.412	-134.223	-0.162	0.020
-552.398	160.143	-0.316	-0.438
-551.383	159.287	0.212	0.293
-550.369	-71.737	-0.164	0.061
-549.354	-26.805	0.340	0.197
-548.339	-200.000	0.037	0.251
-547.325	800.000	0.033	-0.135
-546.310	-200.000	-0.041	0.231
-545.296	227.539	0.194	-0.313
-544.281	-80.511	0.133	0.044
-543.266	-110.606	-0.222	0.046
-542.252	654.741	-0.104	-0.265
-541.237	-200.000	-0.044	0.270
-540.223	-4.463	-0.155	-0.106
-539.208	-200.000	-0.023	-0.172
-538.193	-200.000	0.006	-0.439
-537.179	238.423	0.114	0.189
-536.164	-160.750	0.146	-0.008
-535.150	-74.102	0.590	0.212
-534.135	-200.000	-0.027	-0.426
-533.121	27.017	0.280	0.233
-532.106	410.803	-0.066	0.140
-531.091	-165.885	-0.233	0.010
-530.077	24.414	-0.055	0.045
-529.062	586.597	-0.100	0.245
-528.048	-200.000	0.050	-0.262
-527.033	34.163	0.096	0.083
-526.018	-32.347	-0.111	0.062
-525.004	-43.526	0.095	-0.048
-523.989	119.503	-0.114	-0.140
-522.975	-200.000	0.019	-0.192
-521.960	-200.000	-0.057	-0.282
-520.945	16.647	-0.051	0.040
-519.931	-101.032	0.432	-0.105
-518.916	-200.000	0.023	-0.229
-517.902	-200.000	0.004	0.036
-516.887	-200.000	-0.025	-0.365
-515.872	311.466	-0.053	-0.098
-514.858	-36.422	-0.314	0.168
-513.843	5.759	0.193	0.141
-512.829	800.000	-0.066	0.217
-511.814	800.000	-0.064	-0.259
-510.799	475.765	0.090	-0.202
-509.785	8.671	0.179	-0.134
-508.770	109.034	0.172	-0.204
-507.756	222.468	0.055	-0.087
-506.741	800.000	-0.065	0.193
-505.726	-144.685	0.337	0.031
-504.712	800.000	-0.050	-0.170
-503.697	198.406	-0.027	-0.041
-502.683	-66.316	0.208	0.082
-501.668	-59.384	0.284	-0.121
-500.653	374.708	0.099	-0.201
-499.639	38.728	0.177	-0.157
-498.624	14.834	0.061	-0.047
-497.610	101.703	-0.098	-0.113
-496.595	63.911	-0.090	-0.089
-495.581	49.908	0.222	-0.208
-494.566	800.000	-0.032	-0.130
-493.551	105.836	0.146	0.172
-492.537	-200.000	-0.001	-0.018
-491.522	58.955	-0.063	0.061
-490.508	625.503	0.083	0.208
-489.493	319.928	0.133	0.251
-488.478	-161.206	0.210	-0.011
-487.464	123.733	0.123	-0.153
-486.449	-200.000	-0.022	0.356
-485.435	-61.397	-0.090	-0.038
-484.420	800.000	0.076	0.216
-483.405	1.959	0.398	0.285
-482.391	800.000	0.081	0.323
-481.376	100.597	-0.182	0.210
-480.362	-99.103	-0.272	-0.068
-479.347	-56.187	0.257	-0.113
-478.332	14.240	-0.530	-0.409
-477.318	-44.426	-0.176	-0.087
-476.303	-153.315	0.194	-0.013
-475.289	-119.703	-0.100	-0.017
-474.274	-87.809	0.302	0.090
-473.259	-200.000	-0.003	-0.144
-472.245	-144.496	0.183	0.017
-471.230	525.306	0.046	-0.106
-470.216	-38.328	-0.158	-0.083
-469.201	364.285	0.109	0.217
-468.186	-171.748	-0.278	0.009
-467.172	313.160	-0.148	-0.276
-466.157	800.000	-0.132	-0.471
-465.143	354.224	-0.103	0.203
-464.128	65.260	0.146	-0.147
-463.113	-200.000	0.019	0.162
-462.099	-200.000	-0.033	-0.203
-461.084	-72.873	-0.130	-0.047
-460.070	-87.255	-0.326	0.098
-459.055	-144.738	0.148	-0.013
-458.040	800.000	-0.021	-0.068
-457.026	51.503	-0.037	0.035
-456.011	800.000	0.037	0.150
-454.997	27.851	-0.263	-0.219
-453.982	407.970	0.096	0.201
-452.968	54.472	0.229	0.219
-451.953	465.860	-0.092	-0.204
-450.938	-23.062	0.088	0.052
-449.924	800.000	-0.027	-0.096
-448.909	71.467	-0.171	-0.176
-447.895	-146.254	0.154	0.013
-446.880	800.000	-0.078	-0.331
-445.865	-200.000	0.066	0.409
-444.851	-76.747	0.322	-0.111
-443.836	-14.855	-0.204	-0.129
-442.822	-18.930	0.280	0.172
-441.807	-103.804	0.225	-0.052
-440.792	73.858	-0.301	-0.312
-439.778	246.377	-0.135	0.225
-438.763	800.000	0.040	-0.157
-437.749	-200.000	0.012	0.140
-436.734	-200.000	-0.039	-0.244
-435.719	800.000	0.070	-0.300
-434.705	9.849	0.255	0.191
-433.690	-108.178	-0.045	0.010
-432.676	-105.025	-0.253	0.057
-431.661	3.026	-0.109	-0.078
-430.646	476.148	-0.040	0.090
-429.632	66.441	0.155	-0.156
-428.617	-200.000	-0.010	-0.319
-427.603	-105.513	0.257	-0.058
-426.588	306.741	-0.106	-0.195
-425.573	-81.139	0.233	-0.076
-424.559	800.000	-0.005	-0.019
-423.544	197.864	0.099	0.150
-422.530	800.000	-0.113	-0.308
-421.515	-59.126	0.110	-0.047
-420.500	180.827	0.078	-0.113
-419.486	-200.000	-0.020	0.143
-418.471	-116.452	-0.173	-0.032
-417.457	67.353	0.109	-0.110
-416.442	524.762	-0.190	0.441
-415.428	525.631	0.066	-0.153
-414.413	518.666	0.068	0.158
-413.398	675.311	0.067	0.171
-412.384	299.700	-0.072	-0.132
-411.369	-200.000	-0.006	-0.129
-410.355	-39.684	0.045	-0.023
-409.340	800.000	-0.031	0.122
-408.325	28.496	0.021	-0.018
-407.311	9.901	0.121	-0.091
-406.296	19.042	-0.232	-0.184
-405.282	-200.000	0.005	-0.185
-404.267	-8.600	0.087	0.058
-403.252	303.285	-0.107	0.196
-402.238	-123.705	0.079	0.012
-401.223	-126.713	-0.138	0.020
-400.209	33.009	-0.009	0.008
-399.194	70.261	-0.064	0.065
-398.179	109.786	0.195	0.231
-397.165	800.000	-0.123	0.411
-396.150	-200.000	0.006	0.095
-395.136	-200.000	-0.029	-0.272
-394.121	-200.000	0.031	0.521
-393.106	72.900	0.162	-0.167
-392.092	-200.000	0.002	0.147
-391.077	-200.000	-0.002	-0.148
-390.063	-73.045	-0.424	-0.154
-389.048	-155.401	-0.126	-0.008
-388.033	344.056	0.097	0.187
-387.019	-85.951	-0.173	-0.053
-386.004	-92.461	0.277	-0.077
-384.990	-107.890	0.108	-0.023
-383.975	-200.000	0.038	-0.189
-382.960	276.155	-0.008	-0.015
-381.946	312.823	0.039	0.073
-380.931	-200.000	0.002	0.106
-379.917	-40.233	-0.330	0.169
-378.902	800.000	0.101	0.328
-377.888	-60.870	-0.557	-0.233
-376.873	245.652	0.029	-0.048
-375.858	-12.539	-0.171	-0.110
-374.844	-36.700	-0.329	0.174
-373.829	6.583	0.123	0.090
-372.815	193.638	0.086	0.129
-371.800	364.142	-0.042	-0.083
-370.785	800.000	-0.196	-0.587
-369.771	122.663	-0.131	0.162
-368.756	8.501	-0.256	-0.190
-367.742	-32.449	0.447	-0.246
-366.727	32.341	-0.087	0.074
-365.712	174.792	-0.096	0.137
-364.698	491.748	0.040	0.090
-363.683	-42.842	0.320	0.160
-362.669	-200.000	-0.227	0.000
-361.654	-135.540	0.309	0.036
-360.639	-142.531	0.063	-0.006
-359.625	-200.000	-0.010	0.166
-358.610	521.286	0.067	-0.156
-357.596	-200.000	-0.444	0.001
-356.581	21.246	0.151	0.121
-355.566	116.606	0.122	0.148
-354.552	800.000	0.102	0.288
-353.537	44.658	-0.117	0.106
-352.523	-200.000	-0.004	0.123
-351.508	161.822	0.077	-0.106
-350.493	-180.502	-0.247	0.005
-349.479	-200.000	0.018	0.311
-348.464	800.000	-0.052	0.171
-347.450	-15.054	0.148	0.093
-346.435	-200.000	0.003	0.155
-345.420	800.000	-0.072	0.263
-344.406	13.038	0.253	0.193
-343.391	-200.000	0.013	-0.073
-342.377	-1.411	-0.215	-0.150
-341.362	97.493	0.258	0.292
-340.348	225.219	-0.060	0.096
-339.333	-200.000	0.003	-0.097
-338.318	-65.182	0.412	-0.164
-337.304	-200.000	0.021	0.142
-336.289	-200.000	-0.035	0.299
-335.275	-39.567	0.169	-0.087
-334.260	-200.000	0.062	0.283
-333.245	-200.000	-0.008	0.239
-332.231	317.909	0.059	0.110
-331.216	121.060	0.119	-0.146
-330.202	-102.633	-0.156	0.037
-329.187	-200.000	0.013	-0.299
-328.172	-159.111	-0.320	0.018
-327.158	-4.957	-0.228	0.155
-326.143	-200.000	-0.003	0.050
-325.129	-200.000	0.011	0.418
-324.114	800.000	-0.051	-0.210
-323.099	528.132	-0.038	0.088
-322.085	-47.108	0.227	0.109
-321.070	-23.441	-0.138	-0.082
-320.056	-126.315	0.443	-0.065
-319.041	497.872	0.126	-0.286
-318.026	-200.000	0.025	-0.214
-317.012	800.000	-0.074	0.310
-315.997	-105.698	-0.110	0.024
-314.983	289.635	0.105	0.187
-313.968	-119.088	-0.249	-0.043
-312.953	-101.249	-0.276	-0.066
-311.939	117.241	0.180	0.218
-310.924	-106.184	0.067	0.015
-309.910	-200.000	0.019	0.338
-308.895	103.467	0.113	-0.130
-307.880	364.152	0.042	0.084
-306.866	171.367	0.173	0.245
-305.851	-200.000	-0.033	-0.155
-304.837	18.467	-0.134	0.105
-303.822	-12.817	0.193	0.124
-302.807	-200.000	-0.051	-0.272
-301.793	141.660	0.126	-0.164
-300.778	-106.662	0.160	0.035
-299.764	142.471	-0.216	0.282
-298.749	-200.000	0.016	-0.171
-297.735	53.459	0.218	0.205
-296.720	-102.917	-0.199	-0.046
-295.705	-29.316	0.197	0.111
-294.691	-200.000	0.003	0.116
-293.676	273.483	-0.100	0.173
-292.662	238.002	0.068	0.111
-291.647	800.000	0.111	-0.328
-290.632	156.670	-0.132	0.180
-289.618	495.962	-0.065	0.148
-288.603	-152.796	-0.265	0.018
-287.589	779.638	0.108	0.290
-286.574	-63.821	-0.159	0.064
-285.559	292.534	0.242	-0.433
-284.545	-90.849	-0.314	0.089
-283.530	-134.368	0.165	0.020
-282.516	-131.758	-0.039	-0.005
-281.501	-200.000	0.041	-0.257
-280.486	800.000	0.075	-0.319
-279.472	-200.000	-0.007	0.142
-278.457	222.899	0.053	-0.084
-277.443	-114.551	-0.455	-0.086
-276.428	-200.000	0.035	-0.257
-275.413	-128.071	-0.367	0.052
-274.399	-200.000	0.009	0.235
-273.384	64.720	0.240	-0.238
-272.370	-200.000	0.003	0.046
-271.355	-38.508	0.172	-0.089
-270.340	142.519	-0.290	-0.379
-269.326	800.000	-0.082	-0.281
-268.311	580.088	-0.106	0.254
-267.297	137.439	-0.124	0.159
-266.282	-115.368	-0.165	-0.031
-265.267	-200.000	0.005	-0.064
-264.253	147.174	-0.079	0.104
-263.238	-173.454	0.051	-0.002
-262.224	91.175	0.241	0.266
-261.209	199.397	-0.114	0.171
-260.195	-73.603	-0.012	0.004
-259.180	193.694	0.087	-0.129
-258.165	-200.000	-0.020	0.235
-257.151	27.282	-0.170	0.140
-256.136	-200.000	-0.049	0.222
-255.122	-103.482	0.132	0.030
-254.107	-46.614	0.402	-0.193
-253.092	800.000	-0.120	-0.425
-252.078	-80.966	0.130	0.042
-251.063	-200.000	0.065	0.315
-250.049	-200.000	-0.005	0.048
-249.034	-200.000	-0.340	-0.001
-248.019	92.154	-0.164	0.182
-247.005	178.510	-0.219	-0.315
-245.990	-178.248	0.389	0.009
-244.976	264.397	-0.182	-0.311
-243.961	-200.000	0.021	-0.157
-242.946	-70.141	-0.233	-0.087
-241.932	-101.499	0.214	-0.051
-240.917	-200.000	-0.033	0.216
-239.903	-58.558	0.193	0.082
-238.888	-29.736	-0.168	-0.094
-237.873	-169.636	0.039	0.001
-236.859	800.000	-0.067	0.238
-235.844	42.926	-0.191	0.171
-234.830	431.445	-0.027	-0.057
-233.815	145.325	0.226	0.296
-232.800	-51.892	-0.351	-0.160
-231.786	165.910	0.263	0.366
-230.771	44.555	0.157	-0.141
-229.757	-24.995	0.193	-0.112
-228.742	11.781	0.042	-0.032
-227.727	58.270	0.060	-0.057
-226.713	-200.000	-0.009	-0.099
-225.698	-103.515	0.325	0.075
-224.684	-192.301	-0.498	-0.005
-223.669	800.000	-0.072	-0.245
-222.655	-82.139	-0.116	0.037
-221.640	148.210	0.035	0.046
-220.625	-200.000	-0.069	0.353
-219.611	-76.617	0.231	0.079
-218.596	-140.850	-0.176	0.018
-217.582	-1.335	0.090	-0.063
-216.567	-98.810	-0.184	0.046
-215.552	-200.000	0.007	-0.104
-214.538	-10.181	-0.164	0.106
-213.523	-44.296	0.321	0.158
-212.509	-200.000	0.003	-0.024
-211.494	85.145	0.050	-0.054
-210.479	-122.341	0.156	-0.025
-209.465	-8.703	0.234	0.154
-208.450	-147.591	0.190	0.016
-207.436	-200.000	0.057	-0.246
-206.421	-200.000	-0.002	-0.249
-205.406	502.430	0.038	-0.087
-204.392	26.188	0.220	0.180
-203.377	-54.906	0.306	-0.135
-202.363	-105.656	-0.266	0.059
-201.348	285.592	-0.080	0.141
-200.333	-62.578	0.107	-0.044
-199.319	214.770	-0.105	0.162
-198.304	27.410	0.268	0.221
-197.290	83.099	-0.057	0.060
-196.275	121.047	0.208	0.253
-195.260	18.971	0.115	-0.090
-194.246	44.339	-0.115	-0.104
-193.231	142.967	-0.110	0.143
-192.217	-123.299	-0.277	-0.043
-191.202	191.957	-0.062	0.092
-190.187	61.629	0.273	0.266
-189.173	291.145	0.044	-0.079
-188.158	131.724	0.137	0.173
-187.144	-121.978	0.039	0.006
-186.129	57.452	0.116	-0.111
-185.114	800.000	-0.032	0.102
-184.100	-200.000	0.075	0.321
-183.085	758.633	-0.047	0.124
-182.071	-72.683	0.183	-0.066
-181.056	-44.117	-0.064	0.032
-180.042	-200.000	-0.039	-0.262
-179.027	-110.049	-0.218	0.045
-178.012	-102.230	0.193	-0.045
-176.998	-171.065	0.177	-0.006
-175.983	-64.540	0.258	-0.103
-174.969	-200.000	-0.006	0.314
-173.954	231.800	0.261	0.419
-172.939	-91.004	-0.208	-0.058
-171.925	-200.000	0.042	-0.380
-170.910	-200.000	0.032	0.151
-169.896	-200.000	0.034	-0.182
-168.881	26.724	-0.033	0.027
-167.866	-49.288	0.136	-0.063
-166.852	350.734	-0.092	0.178
-165.837	-199.368	0.256	0.001
-164.823	450.552	-0.143	-0.310
-163.808	255.925	-0.149	-0.250
-162.793	317.338	0.185	-0.342
-161.779	23.007	-0.122	-0.098
-160.764	287.491	0.065	-0.114
-159.750	483.695	0.066	0.147
-158.735	-200.000	0.013	0.171
-157.720	800.000	-0.064	-0.181
-156.706	34.833	0.173	-0.148
-155.691	-132.485	-0.077	-0.010
-154.677	-68.688	-0.205	0.078
-153.662	668.596	0.048	-0.121
-152.647	495.592	0.085	0.192
-151.633	2.951	0.295	-0.209
-150.618	-72.498	-0.201	0.073
-149.604	-168.157	-0.188	-0.007
-148.589	-200.000	-0.002	-0.168
-147.574	-127.403	-0.290	0.041
-146.560	84.569	-0.167	0.179
-145.545	-200.000	0.049	0.504
-144.531	-4.378	-0.102	-0.069
-143.516	-88.428	-0.205	0.060
-142.502	-200.000	0.007	0.323
-141.487	800.000	0.071	0.193
-140.472	800.000	0.098	0.333
-139.458	122.711	0.106	0.129
-138.443	199.246	0.196	0.294
-137.429	-200.000	0.018	0.159
-136.414	-139.316	0.224	0.024
-135.399	-102.423	-0.287	-0.067
-134.385	-76.068	-0.099	0.034
-133.370	-139.878	-0.108	-0.011
-132.356	-200.000	-0.029	-0.326
-131.341	-90.973	-0.082	0.023
-130.326	-74.155	0.141	0.050
-129.312	335.906	0.214	0.406
-128.297	-148.512	0.382	0.030
-127.283	-57.542	-0.099	-0.042
-126.268	-80.555	0.031	0.010
-125.253	-150.503	0.415	-0.031
-124.239	33.142	-0.157	0.133
-123.224	98.281	0.069	-0.078
-122.210	53.591	0.315	-0.295
