DTS Sentinel unit serial number:	SN413079Multiplexer serial number:	ORYXHardware model number:	OX4-SRSoftware version number:	ORYX F/W v4.00 Oryx Data Collector v3.7.2.0data status	okinstallation	princeton_trtdifferential loss correction	single-endedforward channel	channel 1reverse channel	N/Adate	2019/09/19time	05:22:35forward acquisition time	60.00reverse acquisition time	0.00gamma	496.2192k internal	0.2343k external	0.2343temperature offset calibration	1.0020default loss term (dB/km)	0.3790temperature slope calibration	1.0000multiplexer offset coefficient	1.0000multiplexer slope coefficient	1.0000fibre end	0.00T internal ref (°C)	19.44T ext. ref 1 (°C)	0.60T ext. ref 2 (°C)	12.98length (m)	temperature (°C)	Stokes	anti-Stokes-747.200	279.421	0.173	-0.309
-746.185	26.777	-0.099	0.083
-745.171	-48.650	-0.154	0.074
-744.156	426.665	0.096	0.207
-743.142	-200.000	0.014	0.086
-742.127	-1.668	0.200	0.141
-741.112	67.439	0.239	0.244
-740.098	40.455	-0.182	0.164
-739.083	125.059	0.101	0.127
-738.069	196.642	-0.136	0.208
-737.054	-200.000	-0.008	0.231
-736.039	562.386	-0.210	0.509
-735.025	-33.892	0.298	0.164
-734.010	-88.557	-0.116	-0.035
-732.996	-99.367	-0.309	0.078
-731.981	800.000	-0.073	0.226
-730.966	47.444	0.121	-0.113
-729.952	178.078	-0.122	-0.179
-728.937	-140.531	-0.206	0.021
-727.923	426.940	-0.045	0.096
-726.908	-40.852	0.112	-0.058
-725.894	-200.000	-0.000	-0.092
-724.879	-115.131	-0.275	-0.052
-723.864	-200.000	-0.007	0.055
-722.850	-200.000	-0.006	-0.048
-721.835	-200.000	-0.063	-0.356
-720.821	-22.407	-0.160	-0.097
-719.806	-139.145	-0.371	0.040
-718.791	-200.000	-0.015	-0.193
-717.777	-142.728	0.304	-0.030
-716.762	-145.459	0.249	-0.022
-715.748	61.458	0.178	-0.177
-714.733	-101.052	-0.409	-0.100
-713.718	257.700	-0.075	-0.130
-712.704	51.848	0.343	-0.326
-711.689	-200.000	0.046	-0.205
-710.675	410.796	0.069	-0.146
-709.660	-18.602	-0.304	-0.189
-708.645	-190.947	-0.282	-0.003
-707.631	-200.000	-0.001	-0.184
-706.616	112.479	-0.100	0.121
-705.602	-30.844	-0.209	0.118
-704.587	6.218	-0.164	0.122
-703.572	-200.000	0.031	-0.309
-702.558	110.819	0.208	0.250
-701.543	9.323	0.060	0.045
-700.529	-24.495	0.175	-0.104
-699.514	-73.282	-0.172	-0.063
-698.499	-35.092	-0.447	-0.244
-697.485	-56.702	0.191	0.084
-696.470	188.124	0.116	0.173
-695.456	-50.668	0.341	-0.161
-694.441	-60.403	-0.420	-0.178
-693.426	-135.369	0.497	-0.059
-692.412	-200.000	-0.070	-0.000
-691.397	411.478	-0.090	0.191
-690.383	-200.000	0.033	0.289
-689.368	-37.342	-0.116	-0.062
-688.354	-101.652	0.135	-0.033
-687.339	-153.923	0.061	0.004
-686.324	228.984	-0.053	0.086
-685.310	-200.000	0.061	-0.000
-684.295	-56.205	0.140	0.062
-683.281	800.000	0.036	0.131
-682.266	-19.374	0.172	0.107
-681.251	732.949	0.057	-0.153
-680.237	-20.815	0.135	-0.083
-679.222	800.000	0.051	0.182
-678.208	-144.107	0.229	0.021
-677.193	-70.865	0.279	0.105
-676.178	800.000	-0.080	0.270
-675.164	203.573	0.045	-0.069
-674.149	800.000	0.042	0.148
-673.135	-109.110	-0.268	-0.057
-672.120	134.949	0.102	-0.132
-671.105	145.246	-0.133	0.177
-670.091	-200.000	-0.084	0.546
-669.076	-115.458	-0.173	-0.033
-668.062	-174.061	-0.133	0.004
-667.047	56.385	0.112	-0.109
-666.032	-81.410	-0.118	0.039
-665.018	415.399	0.026	-0.056
-664.003	211.516	-0.143	0.224
-662.989	-200.000	0.043	0.508
-661.974	-200.000	0.027	-0.258
-660.959	-200.000	-0.013	-0.169
-659.945	-200.000	0.007	-0.206
-658.930	256.538	0.115	-0.198
-657.916	126.471	-0.074	0.093
-656.901	367.461	0.053	-0.107
-655.886	300.494	0.085	0.157
-654.872	85.436	-0.219	0.240
-653.857	800.000	0.130	0.483
-652.843	4.183	0.210	-0.153
-651.828	-81.873	-0.387	-0.126
-650.814	-6.011	-0.117	0.080
-649.799	-50.769	0.353	0.166
-648.784	800.000	-0.083	-0.274
-647.770	20.274	-0.369	-0.297
-646.755	-77.989	-0.212	-0.073
-645.741	-200.000	-0.004	-0.257
-644.726	-98.433	-0.165	0.042
-643.711	-66.031	0.245	-0.098
-642.697	-155.564	0.065	-0.004
-641.682	-200.000	-0.039	-0.192
-640.668	-69.360	0.086	0.033
-639.653	800.000	0.027	-0.076
-638.638	-10.335	-0.256	0.169
-637.624	258.921	-0.144	0.247
-636.609	16.626	-0.201	0.158
-635.595	745.601	0.037	0.100
-634.580	-159.627	0.438	-0.024
-633.565	34.047	0.180	-0.156
-632.551	579.869	-0.048	-0.116
-631.536	-50.417	-0.146	-0.069
-630.522	295.808	-0.073	0.133
-629.507	-33.113	0.332	0.183
-628.492	116.303	-0.072	-0.089
-627.478	-200.000	-0.013	-0.157
-626.463	667.931	-0.068	0.175
-625.449	2.109	-0.190	0.137
-624.434	230.140	-0.199	0.324
-623.419	-200.000	-0.028	0.128
-622.405	800.000	0.046	0.159
-621.390	74.151	0.226	0.237
-620.376	-15.286	-0.087	0.055
-619.361	11.585	0.172	0.132
-618.346	-200.000	0.004	-0.163
-617.332	-29.350	0.120	-0.069
-616.317	457.810	0.121	0.268
-615.303	452.196	-0.108	-0.238
-614.288	47.765	-0.174	-0.162
-613.273	-50.001	0.229	-0.108
-612.259	-12.240	0.119	0.078
-611.244	800.000	-0.084	0.282
-610.230	-200.000	0.013	-0.369
-609.215	653.711	-0.120	0.306
-608.201	-121.450	-0.166	-0.027
-607.186	800.000	-0.128	0.369
-606.171	-200.000	-0.005	0.206
-605.157	-200.000	-0.070	0.446
-604.142	249.337	0.084	0.142
-603.128	-164.962	0.243	-0.011
-602.113	342.990	-0.055	0.107
-601.098	-200.000	0.011	-0.194
-600.084	509.027	-0.046	0.106
-599.069	-200.000	-0.012	-0.131
-598.055	449.136	0.117	0.257
-597.040	50.359	-0.061	0.057
-596.025	-105.549	0.349	-0.079
-595.011	-73.896	-0.190	-0.069
-593.996	-10.629	-0.236	0.155
-592.982	24.887	-0.233	-0.193
-591.967	153.927	0.163	0.223
-590.952	-61.111	-0.169	-0.071
-589.938	800.000	-0.013	-0.056
-588.923	800.000	0.131	0.376
-587.909	217.111	0.136	0.216
-586.894	7.779	-0.191	0.142
-585.879	139.976	0.241	0.317
-584.865	-200.000	0.007	0.075
-583.850	303.198	0.182	0.336
-582.836	-106.212	-0.143	0.032
-581.821	-200.000	-0.017	-0.116
-580.806	-200.000	-0.027	0.135
-579.792	-200.000	0.015	0.113
-578.777	173.444	-0.077	-0.110
-577.763	-34.008	-0.161	0.088
-576.748	63.779	-0.115	-0.115
-575.733	-158.779	0.220	0.012
-574.719	651.342	-0.146	0.373
-573.704	7.990	0.211	0.158
-572.690	-79.011	0.177	0.060
-571.675	-200.000	-0.021	0.110
-570.661	-89.884	-0.492	-0.143
-569.646	195.140	-0.125	-0.188
-568.631	-14.594	-0.125	0.080
-567.617	153.583	-0.136	0.185
-566.602	800.000	-0.025	-0.088
-565.588	52.301	0.032	0.030
-564.573	49.904	-0.132	-0.124
-563.558	-6.127	0.095	-0.064
-562.544	433.289	-0.079	-0.171
-561.529	-78.696	0.371	-0.126
-560.515	800.000	0.098	0.404
-559.500	-35.541	0.114	0.062
-558.485	69.147	0.265	0.271
-557.471	800.000	0.024	-0.097
-556.456	161.433	0.122	-0.169
-555.442	655.551	-0.137	-0.349
-554.427	207.614	-0.188	0.292
-553.412	800.000	0.105	0.318
-552.398	-161.591	-0.100	0.005
-551.383	14.389	0.076	-0.059
-550.369	800.000	0.044	0.178
-549.354	38.905	0.133	-0.118
-548.339	-65.054	-0.137	0.055
-547.325	-35.015	-0.135	0.073
-546.310	101.589	0.051	0.059
-545.296	-141.671	-0.207	0.021
-544.281	-200.000	-0.018	-0.314
-543.266	800.000	0.125	-0.496
-542.252	-200.000	-0.032	-0.156
-541.237	-131.661	0.151	-0.020
-540.223	-200.000	-0.030	0.358
-539.208	-112.047	0.519	0.104
-538.193	-103.542	0.064	-0.015
-537.179	-200.000	-0.020	0.119
-536.164	14.605	-0.166	0.129
-535.150	-13.911	0.190	-0.122
-534.135	-23.580	-0.199	-0.118
-533.121	358.604	-0.116	0.230
-532.106	583.342	-0.132	0.321
-531.091	-200.000	0.013	-0.126
-530.077	-86.864	-0.281	-0.085
-529.062	-200.000	-0.006	-0.191
-528.048	16.562	-0.047	0.037
-527.033	-89.340	0.112	-0.033
-526.018	-131.157	0.308	0.041
-525.004	-60.765	-0.180	-0.076
-523.989	800.000	0.026	0.099
-522.975	-9.020	0.187	-0.124
-521.960	92.378	0.254	-0.285
-520.945	-96.279	-0.071	-0.019
-519.931	60.541	0.105	-0.103
-518.916	249.482	0.087	-0.147
-517.902	261.528	0.217	-0.374
-516.887	-21.143	0.075	-0.046
-515.872	-121.093	-0.100	-0.017
-514.858	-200.000	-0.021	-0.270
-513.843	69.542	0.158	0.161
-512.829	-58.695	-0.176	0.075
-511.814	-200.000	-0.044	0.344
-510.799	236.950	0.143	0.235
-509.785	-65.628	-0.231	-0.092
-508.770	54.847	-0.125	0.120
-507.756	-150.829	-0.049	-0.004
-506.741	97.095	-0.088	-0.101
-505.726	-35.306	-0.119	-0.064
-504.712	42.790	0.252	-0.228
-503.697	-35.000	-0.129	-0.070
-502.683	-200.000	0.023	0.309
-501.668	800.000	-0.065	0.267
-500.653	297.125	-0.012	0.022
-499.639	-52.412	0.225	0.103
-498.624	43.354	-0.055	-0.050
-497.610	-103.858	0.302	-0.070
-496.595	800.000	-0.054	-0.198
-495.581	800.000	0.020	0.081
-494.566	-21.389	-0.150	-0.091
-493.551	13.230	-0.244	-0.188
-492.537	39.407	-0.138	-0.123
-491.522	142.550	-0.323	0.425
-490.508	-91.509	-0.284	0.080
-489.493	-34.151	0.489	0.266
-488.478	-200.000	0.002	-0.223
-487.464	-20.583	-0.045	-0.027
-486.449	-200.000	-0.044	0.259
-485.435	-154.871	-0.064	0.004
-484.420	-200.000	-0.014	-0.223
-483.405	296.345	0.236	-0.429
-482.391	66.980	-0.127	0.128
-481.376	-200.000	-0.021	-0.282
-480.362	-200.000	-0.032	-0.364
-479.347	390.160	0.060	-0.124
-478.332	-21.374	-0.148	-0.089
-477.318	-27.972	0.264	0.152
-476.303	170.233	0.163	0.231
-475.289	210.605	0.104	0.161
-474.274	-86.854	0.151	-0.046
-473.259	-200.000	-0.007	-0.229
-472.245	259.458	0.122	0.208
-471.230	269.143	-0.203	-0.353
-470.216	26.108	0.245	-0.202
-469.201	28.939	0.130	0.110
-468.186	-200.000	-0.067	0.565
-467.172	7.618	-0.098	0.073
-466.157	-118.564	-0.250	0.044
-465.143	14.897	0.206	0.160
-464.128	19.840	0.188	-0.150
-463.113	-200.000	0.028	0.191
-462.099	-200.000	-0.021	0.141
-461.084	639.487	-0.089	0.223
-460.070	-135.767	-0.151	-0.018
-459.055	-200.000	-0.057	0.309
-458.040	-19.661	0.218	-0.134
-457.026	61.545	-0.163	-0.161
-456.011	35.840	0.080	-0.069
-454.997	-185.130	-0.470	-0.007
-453.982	-22.240	0.154	-0.093
-452.968	-200.000	-0.086	-0.396
-451.953	14.432	-0.162	0.125
-450.938	21.131	-0.198	0.159
-449.924	-20.441	0.464	0.282
-448.909	351.724	0.104	-0.204
-447.895	-109.248	0.255	-0.053
-446.880	71.973	-0.048	-0.049
-445.865	-200.000	0.067	0.311
-444.851	124.724	0.059	-0.074
-443.836	265.837	0.221	-0.382
-442.822	-41.905	0.216	-0.109
-441.807	-150.288	0.640	-0.049
-440.792	-114.280	0.388	0.074
-439.778	-42.495	-0.221	-0.111
-438.763	706.710	-0.104	-0.273
-437.749	14.761	0.179	-0.139
-436.734	-200.000	0.017	0.076
-435.719	43.657	0.200	-0.181
-434.705	56.076	-0.136	-0.131
-433.690	238.364	0.051	-0.084
-432.676	169.030	0.056	-0.079
-431.661	800.000	0.075	-0.309
-430.646	53.981	0.038	0.036
-429.632	312.025	0.017	0.031
-428.617	454.604	0.094	0.205
-427.603	-147.243	0.182	-0.015
-426.588	258.241	0.052	0.089
-425.573	-126.595	-0.139	0.020
-424.559	-16.216	0.059	-0.037
-423.544	-135.446	-0.322	0.038
-422.530	800.000	0.094	-0.300
-421.515	-28.026	0.166	-0.095
-420.500	800.000	-0.014	-0.040
-419.486	-130.647	0.132	-0.018
-418.471	-34.207	0.254	-0.138
-417.457	-200.000	-0.024	-0.209
-416.442	-200.000	0.002	0.041
-415.428	-69.657	0.403	-0.152
-414.413	-200.000	-0.038	-0.171
-413.398	322.724	-0.051	-0.095
-412.384	-76.717	-0.054	-0.019
-411.369	139.345	0.111	-0.144
-410.355	-38.574	0.173	-0.091
-409.340	800.000	-0.089	-0.276
-408.325	139.243	-0.420	-0.546
-407.311	20.629	-0.089	-0.071
-406.296	-60.417	0.316	-0.133
-405.282	98.672	0.171	-0.194
-404.267	-200.000	0.041	0.273
-403.252	-31.473	0.049	-0.027
-402.238	-40.074	-0.161	-0.083
-401.223	-125.611	-0.136	0.020
-400.209	133.532	-0.179	-0.229
-399.194	-81.504	0.177	0.058
-398.179	-80.258	-0.219	-0.072
-397.165	16.665	0.081	0.063
-396.150	227.889	0.201	-0.323
-395.136	-200.000	0.030	0.135
-394.121	-44.976	-0.241	-0.119
-393.106	233.316	0.079	-0.129
-392.092	746.479	0.103	0.273
-391.077	-200.000	0.063	-0.460
-390.063	-41.890	0.202	-0.102
-389.048	24.712	-0.188	0.154
-388.033	-33.647	-0.262	-0.143
-387.019	63.579	0.327	-0.324
-386.004	-200.000	-0.096	-0.639
-384.990	695.748	-0.134	-0.347
-383.975	-200.000	-0.003	0.162
-382.960	-123.034	-0.177	0.028
-381.946	-150.728	0.157	0.012
-380.931	-122.854	-0.143	-0.023
-379.917	-200.000	0.034	0.253
-378.902	209.362	-0.079	-0.122
-377.888	-129.398	0.189	0.026
-376.873	184.638	-0.120	-0.175
-375.858	-200.000	0.012	0.216
-374.844	800.000	0.079	0.236
-373.829	196.129	-0.136	-0.204
-372.815	-95.066	0.198	0.053
-371.800	-50.858	0.204	-0.095
-370.785	7.824	-0.123	-0.091
-369.771	-200.000	-0.044	-0.208
-368.756	360.447	0.223	-0.442
-367.742	800.000	-0.066	-0.204
-366.727	800.000	-0.025	0.071
-365.712	-68.772	-0.422	-0.161
-364.698	-73.638	0.256	0.092
-363.683	-141.595	-0.349	-0.035
-362.669	105.963	0.109	0.127
-361.654	384.403	0.044	0.090
-360.639	543.865	0.062	0.147
-359.625	-200.000	0.008	0.145
-358.610	685.989	-0.058	0.148
-357.596	57.208	-0.191	-0.184
-356.581	800.000	0.035	0.149
-355.566	-200.000	0.000	0.123
-354.552	219.160	-0.070	0.111
-353.537	-74.584	0.100	0.035
-352.523	-8.752	0.073	-0.049
-351.508	50.856	0.157	0.147
-350.493	800.000	-0.039	0.134
-349.479	58.939	0.161	-0.156
-348.464	800.000	-0.101	0.416
-347.450	-119.197	0.106	0.018
-346.435	104.325	0.166	0.192
-345.420	126.798	-0.302	0.378
-344.406	62.281	0.214	0.210
-343.391	405.794	0.138	-0.288
-342.377	-200.000	-0.044	-0.457
-341.362	-59.524	-0.278	0.118
-340.348	-70.649	-0.415	-0.155
-339.333	36.244	-0.109	0.094
-338.318	-103.953	-0.125	-0.029
-337.304	9.717	-0.244	0.182
-336.289	-200.000	-0.023	-0.186
-335.275	-200.000	-0.005	0.162
-334.260	344.518	-0.105	-0.202
-333.245	800.000	-0.051	-0.209
-332.231	-200.000	-0.079	0.356
-331.216	-78.424	0.258	0.087
-330.202	199.244	-0.084	-0.126
-329.187	-200.000	-0.007	-0.081
-328.172	-104.671	-0.243	-0.055
-327.158	680.596	0.025	-0.064
-326.143	5.609	-0.317	0.231
-325.129	312.824	-0.083	0.153
-324.114	-20.757	-0.305	0.184
-323.099	11.762	0.161	0.122
-322.085	274.244	0.165	-0.288
-321.070	67.344	0.093	-0.094
-320.056	-136.367	0.128	0.015
-319.041	-200.000	-0.016	0.240
-318.026	-32.724	0.335	0.184
-317.012	-167.054	0.395	-0.016
-315.997	-200.000	-0.012	0.347
-314.983	707.664	-0.121	-0.315
-313.968	-200.000	0.019	-0.292
-312.953	-57.459	-0.401	-0.173
-311.939	61.600	-0.115	0.113
-310.924	-62.104	0.355	0.146
-309.910	82.828	-0.379	0.406
-308.895	-113.905	0.247	0.047
-307.880	220.420	-0.064	0.101
-306.866	-81.600	-0.173	-0.056
-305.851	-73.624	-0.114	0.041
-304.837	-200.000	-0.004	-0.153
-303.822	-200.000	-0.035	0.252
-302.807	-93.012	0.249	-0.068
-301.793	-78.552	0.080	-0.027
-300.778	-125.428	0.190	0.029
-299.764	793.907	0.091	0.246
-298.749	17.530	-0.151	-0.118
-297.735	-97.573	-0.155	0.040
-296.720	-55.126	-0.174	0.077
-295.705	-180.954	-0.106	0.002
-294.691	-89.552	0.129	0.037
-293.676	800.000	-0.048	0.162
-292.662	-200.000	-0.004	-0.063
-291.647	-123.299	-0.324	0.051
-290.632	-200.000	-0.011	-0.195
-289.618	-200.000	0.006	-0.095
-288.603	-35.817	0.133	0.071
-287.589	283.827	0.063	0.111
-286.574	-135.864	0.165	0.019
-285.559	-170.065	0.017	-0.001
-284.545	12.927	-0.278	-0.211
-283.530	-200.000	0.041	-0.341
-282.516	-141.744	0.176	0.017
-281.501	-127.659	-0.112	0.016
-280.486	75.522	0.012	-0.012
-279.472	-108.399	-0.128	-0.027
-278.457	120.044	-0.071	-0.086
-277.443	133.000	-0.056	-0.071
-276.428	682.712	-0.025	-0.064
-275.413	800.000	-0.056	-0.214
-274.399	-49.791	-0.217	0.101
-273.384	-104.504	0.265	-0.060
-272.370	-5.143	0.175	0.118
-271.355	-7.740	-0.160	0.106
-270.340	-200.000	0.008	0.254
-269.326	-200.000	0.021	-0.125
-268.311	-114.001	0.140	-0.027
-267.297	-57.618	-0.248	-0.107
-266.282	-87.939	0.422	-0.125
-265.267	27.226	-0.061	-0.050
-264.253	-72.516	-0.325	0.118
-263.238	-1.839	-0.221	0.153
-262.224	-14.209	-0.087	0.055
-261.209	800.000	0.109	-0.319
-260.195	800.000	-0.033	0.118
-259.180	-200.000	0.036	-0.341
-258.165	-159.604	0.199	-0.011
-257.151	-72.345	-0.377	0.137
-256.136	404.749	-0.164	0.340
-255.122	0.277	0.301	0.211
-254.107	135.559	-0.126	-0.161
-253.092	-35.880	0.201	-0.107
-252.078	-120.967	-0.260	0.043
-251.063	417.487	0.077	0.161
-250.049	-75.738	-0.161	-0.056
-249.034	78.258	-0.087	0.091
-248.019	-200.000	0.043	-0.331
-247.005	-25.815	-0.138	0.080
-245.990	-117.157	0.101	0.018
-244.976	-200.000	-0.001	0.114
-243.961	-52.699	0.249	0.113
-242.946	-137.127	0.014	-0.002
-241.932	474.658	0.060	-0.133
-240.917	230.739	-0.171	-0.275
-239.903	-200.000	0.044	0.300
-238.888	275.077	0.056	0.097
-237.873	-76.056	0.273	-0.095
-236.859	173.972	-0.124	-0.176
-235.844	-1.028	-0.078	0.054
-234.830	10.065	-0.268	-0.200
-233.815	-18.621	-0.243	-0.149
-232.800	-84.705	0.226	0.070
-231.786	-29.260	0.081	0.045
-230.771	62.760	-0.135	0.133
-229.757	-52.511	-0.205	-0.093
-228.742	-76.260	0.183	-0.063
-227.727	11.791	0.127	0.096
-226.713	-200.000	-0.002	0.231
-225.698	83.049	-0.124	-0.133
-224.684	130.607	-0.227	0.285
-223.669	45.020	0.034	-0.031
-222.655	180.173	-0.158	0.227
-221.640	-200.000	0.031	-0.153
-220.625	-36.283	-0.163	-0.086
-219.611	10.177	0.472	0.352
-218.596	-39.648	-0.145	-0.074
-217.582	-75.120	0.232	-0.081
-216.567	-113.385	-0.171	-0.033
-215.552	15.090	0.162	0.125
-214.538	-117.819	0.278	0.049
-213.523	-108.222	-0.267	-0.057
-212.509	-200.000	0.014	0.152
-211.494	-200.000	0.003	-0.325
-210.479	676.771	0.068	0.172
-209.465	-200.000	0.005	-0.283
-208.450	-73.614	-0.370	0.132
-207.436	-163.627	0.289	0.013
-206.421	-138.993	-0.270	0.029
-205.406	-137.747	0.063	-0.007
-204.392	-192.522	-0.242	-0.002
-203.377	-58.230	-0.186	0.079
-202.363	-194.579	0.155	0.001
-201.348	-200.000	0.017	0.076
-200.333	331.946	-0.240	-0.453
-199.319	-200.000	0.407	-0.002
-198.304	-60.494	-0.209	0.087
-197.290	-200.000	0.016	0.134
-196.275	-200.000	-0.037	0.319
-195.260	-200.000	0.030	0.233
-194.246	-200.000	-0.052	0.233
-193.231	-200.000	0.032	-0.213
-192.217	-23.252	0.215	-0.127
-191.202	4.850	-0.183	-0.132
-190.187	232.006	0.138	-0.222
-189.173	25.379	-0.083	0.068
-188.158	-42.546	0.129	-0.065
-187.144	800.000	-0.066	0.193
-186.129	-75.759	-0.127	0.044
-185.114	144.944	0.184	0.241
-184.100	-200.000	0.026	-0.225
-183.085	-200.000	-0.015	0.106
-182.071	800.000	-0.033	-0.121
-181.056	-63.186	-0.150	-0.061
-180.042	-200.000	0.020	-0.360
-179.027	414.928	-0.069	-0.145
-178.012	106.954	-0.271	0.315
-176.998	-200.000	0.017	0.097
-175.983	-200.000	-0.007	-0.215
-174.969	727.644	-0.088	-0.230
-173.954	800.000	0.142	0.422
-172.939	85.539	-0.131	0.141
-171.925	800.000	-0.090	0.274
-170.910	-200.000	0.030	0.454
-169.896	745.578	0.090	-0.237
-168.881	12.832	0.040	-0.030
-167.866	-128.620	-0.279	-0.039
-166.852	-70.825	0.437	0.161
-165.837	-52.230	0.211	0.096
-164.823	61.949	-0.021	-0.020
-163.808	726.980	-0.003	0.007
-162.793	352.882	-0.055	-0.106
-161.779	190.467	0.225	-0.330
-160.764	-200.000	0.036	0.262
-159.750	39.232	-0.295	-0.259
-158.735	-72.147	0.102	0.037
-157.720	-200.000	0.011	-0.123
-156.706	110.737	-0.311	-0.367
-155.691	-116.709	0.076	-0.014
-154.677	-94.809	-0.028	0.007
-153.662	85.000	0.096	0.103
-152.647	800.000	-0.036	0.104
-151.633	800.000	0.113	0.322
-150.618	231.454	-0.261	0.418
-149.604	-5.371	-0.244	-0.164
-148.589	51.822	-0.039	0.036
-147.574	-52.557	0.159	0.072
-146.560	800.000	0.067	-0.258
-145.545	-127.441	0.243	-0.035
-144.531	-53.903	-0.204	0.091
-143.516	7.986	0.479	0.352
-142.502	212.532	0.146	0.225
-141.487	116.815	-0.215	0.258
-140.472	14.029	0.116	0.088
-139.458	55.482	0.073	-0.069
-138.443	629.363	-0.032	0.080
-137.429	523.359	0.096	0.220
-136.414	404.458	0.081	0.166
-135.399	81.140	-0.192	-0.202
-134.385	-183.999	0.219	0.004
-133.370	763.500	-0.035	-0.094
-132.356	800.000	-0.045	0.162
-131.341	-43.840	-0.122	-0.060
-130.326	219.191	0.177	-0.277
-129.312	312.888	-0.150	0.275
-128.297	119.254	-0.174	0.211
-127.283	89.815	-0.036	0.040
-126.268	26.567	0.058	0.047
-125.253	577.593	0.169	0.405
-124.239	-17.761	-0.208	0.128
-123.224	-159.815	-0.252	0.014
-122.210	19.140	0.283	0.222
-121.195	113.946	-0.179	0.212
