DTS Sentinel unit serial number:	SN413079Multiplexer serial number:	ORYXHardware model number:	OX4-SRSoftware version number:	ORYX F/W v4.00 Oryx Data Collector v3.7.2.0data status	okinstallation	princeton_trtdifferential loss correction	single-endedforward channel	channel 1reverse channel	N/Adate	2019/09/18time	15:34:35forward acquisition time	60.00reverse acquisition time	0.00gamma	496.2192k internal	0.2300k external	0.2300temperature offset calibration	0.9998default loss term (dB/km)	0.3790temperature slope calibration	1.0000multiplexer offset coefficient	1.0000multiplexer slope coefficient	1.0000fibre end	0.00T internal ref (°C)	36.31T ext. ref 1 (°C)	0.77T ext. ref 2 (°C)	31.41length (m)	temperature (°C)	Stokes	anti-Stokes-747.200	-111.962	0.148	0.030
-746.185	192.289	-0.057	0.087
-745.171	53.476	0.168	-0.164
-744.156	-107.500	-0.300	0.067
-743.142	56.634	0.238	0.236
-742.127	109.261	-0.201	0.245
-741.112	-46.097	-0.057	-0.029
-740.098	800.000	0.047	0.167
-739.083	140.975	-0.039	0.053
-738.069	-87.813	-0.074	0.023
-737.054	54.847	-0.125	-0.123
-736.039	-200.000	-0.067	-0.320
-735.025	-88.928	0.099	0.030
-734.010	-2.545	-0.150	-0.107
-732.996	-14.753	-0.147	-0.096
-731.981	800.000	0.024	-0.097
-730.966	-72.269	-0.079	-0.030
-729.952	-77.252	-0.340	0.121
-728.937	-200.000	-0.063	0.312
-727.923	-134.359	0.303	0.038
-726.908	242.615	-0.176	-0.300
-725.894	141.502	-0.101	0.136
-724.879	42.709	-0.266	0.247
-723.864	-200.000	0.026	-0.202
-722.850	696.331	0.060	-0.162
-721.835	65.711	0.280	-0.289
-720.821	-153.481	0.116	-0.008
-719.806	168.617	-0.127	-0.184
-718.791	-200.000	0.036	-0.180
-717.777	-200.000	0.041	-0.193
-716.762	224.366	-0.186	-0.307
-715.748	-139.321	-0.255	0.028
-714.733	-153.085	-0.228	-0.016
-713.718	47.181	-0.239	-0.226
-712.704	-9.242	-0.206	0.140
-711.689	800.000	0.035	0.104
-710.675	-86.860	-0.322	-0.100
-709.660	-45.341	-0.338	-0.171
-708.645	-70.260	-0.089	0.034
-707.631	245.257	0.194	0.333
-706.616	-200.000	-0.015	0.096
-705.602	51.651	0.171	0.165
-704.587	647.753	-0.036	-0.094
-703.572	-200.000	-0.016	-0.086
-702.558	-88.542	0.276	0.084
-701.543	-200.000	0.037	0.283
-700.529	800.000	0.070	0.222
-699.514	-200.000	-0.012	0.114
-698.499	46.039	0.331	0.312
-697.485	-95.131	0.546	0.150
-696.470	66.354	0.100	0.104
-695.456	196.539	0.022	-0.034
-694.441	257.833	-0.095	0.167
-693.426	-52.972	-0.078	-0.036
-692.412	-200.000	0.014	0.234
-691.397	-176.391	0.388	0.010
-690.383	157.533	-0.310	-0.437
-689.368	284.605	-0.087	-0.160
-688.354	800.000	-0.027	-0.084
-687.339	-133.971	0.155	-0.020
-686.324	104.721	-0.038	-0.045
-685.310	-200.000	0.027	0.221
-684.295	766.557	0.098	0.271
-683.281	-200.000	0.023	-0.396
-682.266	-200.000	0.008	0.051
-681.251	326.957	-0.127	0.247
-680.237	-131.482	-0.307	-0.041
-679.222	-143.231	0.354	0.035
-678.208	36.752	0.046	-0.042
-677.193	-96.990	-0.286	-0.076
-676.178	-49.645	0.181	0.088
-675.164	315.790	-0.165	-0.317
-674.149	226.773	0.073	0.120
-673.135	-200.000	-0.004	0.352
-672.120	0.923	0.057	0.042
-671.105	22.872	0.107	-0.090
-670.091	272.749	-0.112	-0.202
-669.076	-57.060	0.037	0.017
-668.062	-96.764	-0.068	0.018
-667.047	-200.000	0.001	0.196
-666.032	714.038	-0.123	-0.333
-665.018	800.000	-0.100	-0.291
-664.003	-102.021	-0.506	-0.124
-662.989	-44.128	0.317	-0.162
-661.974	22.671	-0.156	-0.130
-660.959	-146.425	-0.083	-0.007
-659.945	-77.227	0.458	-0.162
-658.930	759.486	0.069	0.190
-657.916	228.228	0.084	0.139
-656.901	-7.168	0.143	-0.098
-655.886	183.023	0.222	0.333
-654.872	260.658	-0.083	-0.146
-653.857	26.799	0.178	-0.151
-652.843	-200.000	0.015	0.073
-651.828	165.502	-0.221	-0.318
-650.814	218.676	0.023	-0.037
-649.799	572.257	0.074	-0.183
-648.784	800.000	0.101	-0.293
-647.770	-200.000	-0.031	0.291
-646.755	-123.098	0.201	-0.033
-645.741	-52.375	0.170	0.080
-644.726	-138.411	0.149	0.017
-643.711	105.766	-0.064	0.076
-642.697	305.096	0.077	-0.146
-641.682	-187.884	-0.181	-0.002
-640.668	93.347	-0.213	-0.245
-639.653	-200.000	0.033	-0.156
-638.638	-200.000	-0.010	-0.167
-637.624	155.831	-0.351	0.492
-636.609	-115.439	-0.236	0.045
-635.595	-101.440	-0.340	-0.084
-634.580	-70.533	0.063	-0.024
-633.565	56.989	0.085	0.085
-632.551	-200.000	0.012	0.242
-631.536	249.681	0.162	-0.279
-630.522	-24.226	0.033	0.020
-629.507	-49.043	0.317	-0.154
-628.492	-126.149	-0.053	0.008
-627.478	-200.000	-0.002	-0.236
-626.463	5.131	0.132	0.099
-625.449	-64.281	-0.247	0.102
-624.434	340.124	-0.111	0.220
-623.419	208.361	-0.113	0.179
-622.405	-141.502	0.130	0.013
-621.390	663.478	-0.131	-0.344
-620.376	186.180	0.168	-0.254
-619.361	-17.482	0.220	0.140
-618.346	-35.715	-0.137	0.075
-617.332	509.763	-0.116	0.273
-616.317	40.199	-0.088	0.080
-615.303	20.888	-0.132	-0.108
-614.288	503.153	0.079	0.185
-613.273	30.045	-0.236	-0.205
-612.259	246.148	0.110	-0.189
-611.244	51.856	0.095	0.092
-610.230	-57.323	-0.221	0.099
-609.215	-116.645	0.012	0.002
-608.201	-36.223	-0.085	0.047
-607.186	-121.571	0.169	0.028
-606.171	225.339	0.069	0.113
-605.157	28.614	-0.083	0.072
-604.142	202.139	-0.033	-0.051
-603.128	-97.510	-0.371	0.098
-602.113	10.678	0.142	0.110
-601.098	134.596	-0.061	0.080
-600.084	800.000	0.081	-0.248
-599.069	97.524	0.079	-0.093
-598.055	375.595	0.005	-0.011
-597.040	-76.073	0.036	0.013
-596.025	2.120	0.097	-0.071
-595.011	703.562	0.125	0.333
-593.996	800.000	-0.026	-0.086
-592.982	-5.290	-0.059	0.041
-591.967	-56.290	0.174	-0.078
-590.952	-96.550	0.326	-0.087
-589.938	-200.000	-0.008	0.148
-588.923	302.068	0.077	-0.145
-587.909	267.884	-0.035	-0.063
-586.894	593.114	0.018	-0.045
-585.879	27.879	0.211	-0.181
-584.865	611.002	0.077	0.196
-583.850	390.290	0.048	-0.101
-582.836	-7.384	-0.213	-0.146
-581.821	39.005	-0.226	-0.204
-580.806	800.000	-0.095	-0.370
-579.792	17.964	-0.102	-0.083
-578.777	252.820	-0.069	0.119
-577.763	-200.000	-0.001	0.296
-576.748	-3.394	0.271	-0.191
-575.733	294.355	-0.122	-0.226
-574.719	28.664	0.209	-0.179
-573.704	-200.000	-0.054	-0.473
-572.690	176.918	-0.131	0.193
-571.675	-107.618	0.301	0.067
-570.661	-52.671	-0.076	-0.035
-569.646	149.686	0.264	-0.362
-568.631	158.679	-0.250	-0.352
-567.617	-200.000	0.036	0.170
-566.602	-138.956	0.263	0.029
-565.588	204.890	0.116	0.182
-564.573	-200.000	0.017	0.142
-563.558	-80.999	-0.198	0.066
-562.544	-120.737	-0.109	-0.019
-561.529	-143.695	0.465	0.045
-560.515	-146.586	-0.393	0.035
-559.500	-200.000	0.022	-0.250
-558.485	-200.000	0.012	-0.155
-557.471	-123.817	-0.225	0.036
-556.456	252.439	0.166	-0.286
-555.442	-147.834	-0.270	-0.023
-554.427	-200.000	-0.005	-0.218
-553.412	-67.184	0.119	0.047
-552.398	-200.000	-0.024	-0.174
-551.383	97.191	0.224	-0.260
-550.369	800.000	0.077	0.236
-549.354	-5.171	-0.244	0.170
-548.339	77.406	0.120	0.129
-547.325	-60.753	-0.276	0.118
-546.310	800.000	0.085	0.269
-545.296	-96.077	-0.128	-0.034
-544.281	800.000	-0.060	0.170
-543.266	117.153	0.248	0.308
-542.252	16.436	0.200	0.160
-541.237	-102.109	-0.167	-0.041
-540.223	-200.000	-0.011	-0.092
-539.208	-200.000	0.009	0.099
-538.193	63.896	0.244	0.248
-537.179	-138.372	0.122	0.014
-536.164	378.029	-0.079	0.164
-535.150	-125.646	-0.194	-0.030
-534.135	-157.179	-0.264	-0.016
-533.121	139.752	0.044	-0.059
-532.106	-170.791	0.252	-0.009
-531.091	800.000	-0.054	-0.224
-530.077	-155.008	0.317	0.021
-529.062	-42.709	-0.076	-0.039
-528.048	-200.000	0.016	0.108
-527.033	800.000	-0.040	-0.147
-526.018	145.049	0.309	0.418
-525.004	71.523	-0.092	-0.096
-523.989	800.000	-0.054	-0.229
-522.975	84.388	0.192	-0.213
-521.960	-105.236	0.154	0.036
-520.945	-55.549	-0.117	-0.053
-519.931	153.468	-0.049	0.068
-518.916	-13.327	-0.297	-0.195
-517.902	-80.286	0.145	0.049
-516.887	-103.142	0.299	-0.072
-515.872	337.740	0.137	-0.269
-514.858	-6.950	-0.135	-0.093
-513.843	154.169	-0.077	-0.107
-512.829	-200.000	-0.001	-0.341
-511.814	260.351	-0.149	0.260
-510.799	82.541	0.057	-0.063
-509.785	352.858	0.123	-0.247
-508.770	709.894	-0.056	-0.151
-507.756	800.000	0.041	-0.166
-506.741	364.839	-0.062	-0.126
-505.726	-78.798	-0.026	-0.009
-504.712	196.355	0.173	-0.267
-503.697	-79.779	0.143	-0.049
-502.683	251.620	-0.079	0.135
-501.668	800.000	0.050	0.139
-500.653	-42.535	-0.215	-0.111
-499.639	-85.636	-0.270	-0.085
-498.624	-170.870	0.108	0.004
-497.610	-75.794	-0.080	-0.029
-496.595	6.953	-0.056	-0.042
-495.581	166.820	0.081	0.116
-494.566	170.020	-0.019	-0.028
-493.551	-45.654	-0.189	0.095
-492.537	214.668	-0.117	0.188
-491.522	-110.792	0.293	0.061
-490.508	-57.410	0.105	0.047
-489.493	90.456	-0.086	-0.097
-488.478	800.000	0.093	-0.292
-487.464	-144.381	-0.135	-0.013
-486.449	-64.519	0.055	-0.023
-485.435	202.507	-0.082	-0.128
-484.420	289.667	-0.094	0.172
-483.405	503.467	0.102	0.238
-482.391	10.032	-0.151	0.116
-481.376	-197.885	-0.175	-0.001
-480.362	-71.763	-0.241	-0.091
-479.347	380.523	-0.074	-0.154
-478.332	102.590	-0.109	0.128
-477.318	-133.821	0.199	-0.025
-476.303	800.000	0.058	0.206
-475.289	-91.629	0.135	-0.039
-474.274	-71.774	0.315	-0.118
-473.259	28.299	-0.192	0.164
-472.245	98.107	0.130	-0.151
-471.230	800.000	0.049	-0.164
-470.216	-28.039	-0.081	0.047
-469.201	786.813	-0.067	0.185
-468.186	577.217	-0.103	-0.255
-467.172	-200.000	-0.022	-0.116
-466.157	113.628	-0.138	0.169
-465.143	-200.000	-0.035	-0.159
-464.128	-200.000	0.006	-0.043
-463.113	51.237	0.132	0.126
-462.099	13.076	0.107	-0.083
-461.084	-200.000	0.006	0.173
-460.070	-159.459	0.309	0.017
-459.055	5.269	0.440	0.327
-458.040	800.000	0.083	-0.260
-457.026	-200.000	0.006	-0.298
-456.011	-115.350	0.350	-0.067
-454.997	800.000	-0.026	0.097
-453.982	800.000	0.017	0.069
-452.968	-200.000	-0.014	-0.102
-451.953	-116.503	0.151	-0.028
-450.938	289.799	0.067	0.122
-449.924	-200.000	0.098	-0.480
-448.909	-119.974	0.116	-0.020
-447.895	800.000	-0.023	-0.092
-446.880	800.000	0.026	-0.083
-445.865	-200.000	0.006	-0.084
-444.851	-36.906	-0.037	0.020
-443.836	800.000	0.099	-0.311
-442.822	-82.156	0.151	0.050
-441.807	-125.108	-0.174	-0.027
-440.792	70.702	0.117	0.123
-439.778	800.000	0.032	0.093
-438.763	12.480	-0.280	-0.218
-437.749	-75.729	-0.184	0.066
-436.734	143.638	0.079	-0.106
-435.719	-200.000	-0.057	0.270
-434.705	-200.000	-0.002	0.216
-433.690	-103.729	0.159	-0.038
-432.676	28.739	-0.137	0.117
-431.661	-148.370	-0.248	0.020
-430.646	79.701	-0.067	-0.072
-429.632	369.255	0.073	-0.149
-428.617	-15.276	-0.061	0.039
-427.603	146.955	-0.107	-0.145
-426.588	-77.878	-0.082	-0.029
-425.573	-200.000	0.048	0.324
-424.559	109.482	-0.248	0.299
-423.544	217.855	0.051	0.082
-422.530	800.000	-0.079	-0.264
-421.515	-200.000	-0.051	-0.398
-420.500	255.737	0.006	0.011
-419.486	68.026	-0.152	0.157
-418.471	63.614	-0.139	0.140
-417.457	134.766	-0.192	0.251
-416.442	-33.082	0.096	-0.054
-415.428	-69.595	-0.088	-0.034
-414.413	5.745	0.183	-0.137
-413.398	-10.899	0.258	-0.172
-412.384	-32.815	-0.392	0.219
-411.369	-36.477	-0.124	0.067
-410.355	-149.098	-0.176	0.014
-409.340	-200.000	-0.009	-0.173
-408.325	166.984	0.134	0.192
-407.311	9.685	0.143	0.109
-406.296	800.000	-0.045	-0.150
-405.282	117.262	-0.039	0.048
-404.267	-67.503	0.278	0.110
-403.252	293.577	-0.081	0.148
-402.238	-200.000	-0.008	-0.038
-401.223	36.847	-0.230	0.204
-400.209	451.076	-0.120	-0.266
-399.194	20.635	0.087	0.071
-398.179	130.719	-0.187	0.241
-397.165	-200.000	0.002	0.102
-396.150	-26.457	0.385	0.227
-395.136	-200.000	-0.019	0.104
-394.121	395.473	0.118	-0.248
-393.106	-200.000	-0.021	0.245
-392.092	800.000	0.078	0.234
-391.077	300.506	0.188	0.349
-390.063	-18.040	-0.350	-0.220
-389.048	-48.800	0.086	0.041
-388.033	-178.432	-0.305	-0.007
-387.019	15.775	0.196	0.155
-386.004	-17.686	-0.222	-0.140
-384.990	-109.657	-0.155	0.033
-383.975	-200.000	-0.057	0.362
-382.960	-31.349	-0.068	0.038
-381.946	-53.256	0.256	-0.118
-380.931	69.256	0.071	-0.074
-379.917	-75.589	-0.121	-0.043
-378.902	59.362	-0.138	0.137
-377.888	35.032	-0.249	-0.219
-376.873	0.889	0.131	0.095
-375.858	-52.360	-0.121	-0.056
-374.844	-85.731	0.324	-0.101
-373.829	299.103	0.100	-0.184
-372.815	46.173	0.146	-0.136
-371.800	-184.340	0.089	0.001
-370.785	-160.285	0.145	-0.008
-369.771	-86.541	-0.071	-0.022
-368.756	-129.144	0.263	0.037
-367.742	371.044	-0.082	-0.167
-366.727	800.000	-0.068	0.292
-365.712	-200.000	-0.034	0.263
-364.698	85.887	-0.064	0.071
-363.683	800.000	-0.062	-0.228
-362.669	-15.698	0.217	0.139
-361.654	-200.000	-0.186	0.000
-360.639	29.712	-0.298	-0.255
-359.625	-61.313	-0.392	-0.166
-358.610	-132.724	-0.169	0.022
-357.596	800.000	-0.059	-0.233
-356.581	636.961	-0.156	0.398
-355.566	-80.742	0.153	-0.051
-354.552	510.402	0.134	0.313
-353.537	-200.000	0.060	-0.453
-352.523	528.993	0.010	-0.024
-351.508	99.560	-0.197	-0.229
-350.493	-77.245	-0.173	-0.061
-349.479	27.451	-0.151	0.128
-348.464	319.800	0.122	0.233
-347.450	-120.204	0.328	0.056
-346.435	-87.330	-0.087	0.026
-345.420	421.002	-0.071	0.153
-344.406	-89.913	0.276	0.081
-343.391	-125.221	-0.126	0.019
-342.377	103.717	0.112	-0.132
-341.362	-133.622	0.201	0.025
-340.348	-114.353	-0.032	0.006
-339.333	-12.811	-0.193	0.126
-338.318	-200.000	-0.021	-0.133
-337.304	334.320	-0.044	-0.085
-336.289	131.737	-0.119	-0.153
-335.275	-200.000	0.014	0.220
-334.260	337.853	0.117	0.229
-333.245	-84.841	-0.231	0.073
-332.231	82.777	0.057	0.062
-331.216	-124.996	0.175	-0.027
-330.202	91.205	-0.072	-0.081
-329.187	40.772	-0.216	-0.196
-328.172	213.336	-0.115	0.183
-327.158	-122.477	-0.264	0.043
-326.143	-55.495	-0.201	-0.090
-325.129	800.000	0.031	-0.089
-324.114	-120.212	-0.255	0.044
-323.099	15.720	0.236	0.186
-322.085	-82.702	-0.174	-0.056
-321.070	-103.002	-0.225	-0.053
-320.056	66.089	-0.148	-0.151
-319.041	-100.927	0.116	-0.029
-318.026	-88.149	0.163	-0.049
-317.012	441.112	-0.077	-0.170
-315.997	9.474	-0.217	-0.165
-314.983	517.200	0.009	-0.020
-313.968	34.213	-0.113	0.099
-312.953	-52.706	-0.239	0.110
-311.939	-96.961	-0.160	0.042
-310.924	-200.000	0.022	-0.155
-309.910	-64.701	0.051	0.021
-308.895	41.920	-0.142	0.129
-307.880	-200.000	0.019	0.272
-306.866	-149.972	0.313	0.024
-305.851	89.415	0.041	-0.046
-304.837	-36.999	0.432	-0.232
-303.822	-200.000	0.036	-0.459
-302.807	16.245	0.245	0.193
-301.793	-93.861	-0.446	-0.123
-300.778	-12.842	0.226	0.147
-299.764	-67.980	0.447	0.175
-298.749	197.367	0.081	0.124
-297.735	-200.000	0.042	-0.199
-296.720	25.232	0.074	-0.062
-295.705	-104.333	-0.257	-0.060
-294.691	-161.198	0.233	-0.012
-293.676	83.930	0.244	0.267
-292.662	-111.116	-0.128	-0.026
-291.647	19.533	-0.193	-0.155
-290.632	-145.406	0.193	-0.017
-289.618	-97.039	0.181	0.048
-288.603	800.000	-0.048	0.172
-287.589	-200.000	-0.001	-0.106
-286.574	-103.103	-0.058	-0.014
-285.559	-200.000	-0.014	-0.293
-284.545	800.000	0.082	-0.335
-283.530	800.000	-0.061	0.206
-282.516	28.231	0.074	-0.062
-281.501	17.426	-0.263	-0.209
-280.486	18.249	-0.129	-0.103
-279.472	800.000	-0.088	-0.250
-278.457	-200.000	-0.019	0.275
-277.443	-43.467	-0.013	-0.006
-276.428	-141.407	0.243	-0.025
-275.413	59.865	-0.066	-0.065
-274.399	193.956	-0.112	0.170
-273.384	-151.983	0.038	-0.003
-272.370	68.374	-0.155	0.159
-271.355	-110.130	-0.046	0.010
-270.340	-200.000	0.030	0.135
-269.326	207.736	0.125	0.195
-268.311	-79.841	0.083	-0.028
-267.297	170.460	0.102	-0.146
-266.282	-35.728	-0.401	0.218
-265.267	800.000	-0.060	-0.189
-264.253	87.763	-0.134	0.148
-263.238	-102.708	0.309	0.074
-262.224	-68.684	0.524	-0.203
-261.209	3.698	-0.204	-0.149
-260.195	-65.261	-0.081	0.033
-259.180	18.137	-0.097	0.077
-258.165	-58.143	0.266	0.116
-257.151	-200.000	0.008	-0.106
-256.136	800.000	-0.038	-0.106
-255.122	-48.494	0.192	-0.092
-254.107	-136.328	-0.046	0.005
-253.092	182.236	0.115	-0.169
-252.078	-68.043	0.211	0.082
-251.063	-112.575	0.248	0.049
-250.049	91.334	0.183	-0.206
-249.034	656.051	0.045	0.117
-248.019	374.138	-0.146	0.297
-247.005	441.223	-0.059	-0.130
-245.990	-65.105	-0.094	0.038
-244.976	-17.080	-0.240	-0.152
-243.961	81.274	0.142	-0.154
-242.946	-52.831	-0.112	-0.052
-241.932	324.382	-0.037	-0.072
-240.917	-117.604	0.182	-0.033
-239.903	-144.839	0.198	-0.018
-238.888	-191.782	-0.092	0.001
-237.873	-57.447	0.277	-0.122
-236.859	119.881	-0.077	0.095
-235.844	69.990	-0.264	-0.273
-234.830	800.000	-0.056	0.191
-233.815	49.606	-0.238	0.224
-232.800	220.405	-0.161	0.257
-231.786	800.000	0.024	0.088
-230.771	172.673	0.138	0.198
-229.757	-30.006	0.134	-0.076
-228.742	-82.133	-0.050	0.016
-227.727	233.336	-0.072	-0.119
-226.713	-200.000	-0.009	-0.065
-225.698	-73.036	-0.177	-0.065
-224.684	-6.149	0.155	0.106
-223.669	-200.000	0.040	-0.324
-222.655	35.310	-0.058	0.051
-221.640	171.777	-0.117	0.168
-220.625	30.613	-0.459	0.392
-219.611	474.868	0.020	0.044
-218.596	159.630	-0.266	0.370
-217.582	103.957	-0.133	0.156
-216.567	-101.171	0.133	-0.032
-215.552	-27.064	0.364	-0.212
-214.538	-200.000	-0.064	0.406
-213.523	724.021	-0.017	-0.046
-212.509	597.018	0.099	0.244
-211.494	-94.404	-0.095	-0.026
-210.479	-117.813	0.056	-0.010
-209.465	740.528	-0.098	-0.264
-208.450	155.523	0.118	0.162
-207.436	-200.000	-0.011	-0.056
-206.421	-59.086	-0.051	0.022
-205.406	-151.353	0.107	0.008
-204.392	-200.000	0.003	-0.119
-203.377	-133.747	-0.271	-0.034
-202.363	-3.608	-0.381	0.264
-201.348	0.072	0.265	-0.188
-200.333	386.011	-0.105	-0.217
-199.319	72.789	-0.267	0.278
-198.304	800.000	-0.071	0.213
-197.290	-40.531	-0.016	-0.008
-196.275	552.807	-0.115	0.276
-195.260	-108.290	-0.401	-0.086
-194.246	11.693	-0.106	0.081
-193.231	19.052	0.146	0.117
-192.217	-151.045	0.116	-0.009
-191.202	56.244	0.076	-0.073
-190.187	51.382	0.043	0.041
-189.173	499.924	-0.019	0.044
-188.158	-200.000	-0.044	-0.208
-187.144	-155.969	0.220	0.014
-186.129	-200.000	-0.061	-0.403
-185.114	49.603	0.125	-0.117
-184.100	800.000	-0.031	0.110
-183.085	-125.819	0.148	0.022
-182.071	106.399	0.100	0.119
-181.056	-123.542	-0.063	-0.010
-180.042	571.774	-0.122	0.296
-179.027	116.321	-0.068	0.083
-178.012	57.035	0.137	0.133
-176.998	-200.000	-0.042	-0.344
-175.983	-99.061	0.164	0.041
-174.969	800.000	0.109	0.364
-173.954	536.364	0.122	0.289
-172.939	800.000	-0.027	-0.078
-171.925	-121.274	0.392	0.065
-170.910	20.131	-0.035	0.028
-169.896	-71.060	0.211	-0.079
-168.881	800.000	0.073	-0.266
-167.866	800.000	0.010	-0.031
-166.852	168.654	0.141	0.200
-165.837	470.243	-0.018	0.041
-164.823	55.810	-0.212	0.205
-163.808	-77.682	0.207	0.071
-162.793	11.469	0.199	0.152
-161.779	-123.811	0.068	-0.011
-160.764	573.701	0.054	0.130
-159.750	800.000	-0.036	-0.127
-158.735	800.000	0.031	0.120
-157.720	-200.000	-0.034	0.221
-156.706	140.266	0.088	-0.115
-155.691	-67.048	0.128	-0.050
-154.677	-92.679	-0.076	0.021
-153.662	8.880	-0.086	0.065
-152.647	-200.000	0.026	0.145
-151.633	-129.828	0.069	0.010
-150.618	800.000	0.141	0.531
-149.604	-200.000	0.016	-0.301
-148.589	-40.326	0.248	0.129
-147.574	90.780	-0.094	0.106
-146.560	-54.233	0.323	-0.146
-145.545	800.000	0.056	-0.199
-144.531	-5.758	0.144	-0.098
-143.516	65.878	0.125	-0.126
-142.502	289.757	0.153	0.277
-141.487	135.353	0.159	0.205
-140.472	-17.535	0.086	-0.054
-139.458	291.638	0.246	0.446
-138.443	-37.778	-0.048	0.025
-137.429	-37.408	-0.300	-0.160
-136.414	-200.000	0.035	0.210
-135.399	-1.989	0.235	0.164
-134.385	51.939	-0.243	-0.230
-133.370	800.000	-0.091	-0.342
-132.356	-62.040	-0.239	-0.100
-131.341	800.000	-0.084	0.276
-130.326	800.000	0.107	0.341
-129.312	-200.000	-0.016	0.337
-128.297	-39.043	0.238	-0.125
-127.283	115.580	-0.174	-0.212
-126.268	-150.760	0.390	0.030
-125.253	-165.527	0.233	0.010
-124.239	-200.000	-0.022	0.291
-123.224	-200.000	-0.001	-0.177
-122.210	-25.383	-0.128	-0.075
-121.195	-52.594	0.284	-0.130
