DTS Sentinel unit serial number:	SN413079Multiplexer serial number:	ORYXHardware model number:	OX4-SRSoftware version number:	ORYX F/W v4.00 Oryx Data Collector v3.7.2.0data status	okinstallation	princeton_trtdifferential loss correction	single-endedforward channel	channel 1reverse channel	N/Adate	2019/09/17time	09:58:35forward acquisition time	60.00reverse acquisition time	0.00gamma	496.2192k internal	0.2323k external	0.2323temperature offset calibration	0.9958default loss term (dB/km)	0.3790temperature slope calibration	1.0000multiplexer offset coefficient	1.0000multiplexer slope coefficient	1.0000fibre end	0.00T internal ref (°C)	29.58T ext. ref 1 (°C)	0.17T ext. ref 2 (°C)	25.28length (m)	temperature (°C)	Stokes	anti-Stokes-747.200	-200.000	0.020	0.461
-746.185	578.724	0.060	0.149
-745.171	-99.696	-0.271	-0.069
-744.156	-35.272	-0.093	0.051
-743.142	411.351	0.165	0.353
-742.127	-175.490	0.023	0.001
-741.112	800.000	0.070	0.257
-740.098	-110.751	-0.302	0.063
-739.083	-57.220	0.219	0.097
-738.069	-70.199	-0.272	-0.104
-737.054	403.751	0.092	-0.196
-736.039	800.000	0.022	0.087
-735.025	-200.000	0.020	-0.182
-734.010	122.011	-0.150	0.189
-732.996	34.461	-0.238	0.210
-731.981	-112.335	-0.313	-0.063
-730.966	-67.409	-0.110	-0.044
-729.952	-85.501	-0.241	-0.076
-728.937	-62.215	-0.191	-0.080
-727.923	-186.739	0.196	-0.003
-726.908	-200.000	0.007	0.155
-725.894	25.116	-0.108	0.090
-724.879	618.725	0.211	-0.535
-723.864	413.909	-0.133	-0.286
-722.850	-27.072	-0.455	-0.268
-721.835	400.587	0.048	-0.101
-720.821	601.641	0.070	-0.175
-719.806	42.216	-0.224	0.205
-718.791	-110.540	0.228	0.048
-717.777	46.861	0.310	0.290
-716.762	800.000	0.067	-0.199
-715.748	37.231	-0.190	0.169
-714.733	-200.000	0.004	0.156
-713.718	-200.000	-0.017	-0.162
-712.704	-177.182	0.252	-0.006
-711.689	-0.330	-0.042	-0.030
-710.675	-200.000	-0.008	-0.512
-709.660	49.865	-0.013	0.012
-708.645	-200.000	-0.045	0.223
-707.631	-200.000	-0.016	0.079
-706.616	-74.950	0.167	-0.061
-705.602	-51.569	0.154	-0.073
-704.587	-176.028	0.315	-0.008
-703.572	150.482	-0.276	0.378
-702.558	-200.000	0.002	0.046
-701.543	-62.621	0.064	0.027
-700.529	231.283	-0.072	0.119
-699.514	-200.000	0.006	-0.075
-698.499	-103.310	0.116	0.028
-697.485	142.353	0.130	-0.174
-696.470	-200.000	-0.012	0.091
-695.456	-4.221	-0.132	0.092
-694.441	-200.000	-0.010	-0.052
-693.426	314.035	-0.145	-0.276
-692.412	800.000	0.076	-0.265
-691.397	-45.983	-0.193	-0.096
-690.383	-13.452	0.139	0.091
-689.368	40.373	-0.039	0.035
-688.354	439.213	0.128	-0.282
-687.339	-200.000	0.025	0.212
-686.324	-0.031	0.133	-0.096
-685.310	-54.258	0.145	-0.066
-684.295	-57.836	0.117	0.052
-683.281	65.386	-0.154	0.157
-682.266	-200.000	-0.032	0.188
-681.251	-4.517	0.225	-0.157
-680.237	-200.000	-0.034	0.156
-679.222	302.808	-0.052	0.097
-678.208	155.132	-0.140	0.194
-677.193	249.011	-0.195	-0.332
-676.178	-86.376	-0.042	-0.013
-675.164	-200.000	0.021	-0.185
-674.149	-134.947	0.110	0.013
-673.135	800.000	-0.035	-0.134
-672.120	-200.000	-0.041	-0.181
-671.105	-152.974	-0.195	0.014
-670.091	-71.034	-0.146	-0.055
-669.076	800.000	-0.078	-0.241
-668.062	-7.755	-0.182	0.124
-667.047	-104.393	-0.276	-0.064
-666.032	662.880	-0.084	0.218
-665.018	387.139	0.073	-0.152
-664.003	-58.238	-0.446	-0.195
-662.989	800.000	0.149	0.422
-661.974	655.932	-0.088	0.226
-660.959	66.751	-0.170	0.174
-659.945	800.000	-0.066	-0.224
-658.930	800.000	-0.086	0.353
-657.916	-116.669	-0.183	-0.034
-656.901	-200.000	0.030	-0.256
-655.886	-61.895	0.317	-0.134
-654.872	-113.683	0.297	-0.058
-653.857	-8.450	-0.175	0.118
-652.843	13.333	-0.354	-0.276
-651.828	800.000	0.118	-0.340
-650.814	-200.000	-0.033	-0.237
-649.799	800.000	0.079	-0.225
-648.784	-99.343	-0.137	0.035
-647.770	102.955	0.105	0.123
-646.755	246.283	0.101	0.171
-645.741	-59.294	-0.297	0.129
-644.726	-200.000	0.002	0.220
-643.711	-200.000	0.022	-0.316
-642.697	800.000	0.054	-0.186
-641.682	-200.000	-0.105	0.511
-640.668	119.582	0.057	0.071
-639.653	-34.254	0.354	-0.195
-638.638	375.907	-0.094	0.192
-637.624	-19.179	0.117	0.073
-636.609	800.000	-0.068	0.199
-635.595	-97.135	0.207	-0.054
-634.580	138.878	0.206	0.272
-633.565	106.615	0.020	-0.024
-632.551	56.066	0.284	0.277
-631.536	-77.857	0.069	0.024
-630.522	-145.154	-0.419	0.038
-629.507	35.659	0.124	0.109
-628.492	-132.525	-0.065	0.008
-627.478	164.521	0.049	0.069
-626.463	232.711	0.073	-0.121
-625.449	800.000	-0.060	-0.239
-624.434	53.633	0.192	-0.186
-623.419	-167.546	-0.202	-0.008
-622.405	-60.849	-0.254	-0.108
-621.390	-74.095	0.305	0.111
-620.376	-84.378	-0.517	-0.164
-619.361	50.937	0.113	-0.108
-618.346	-123.843	-0.222	-0.035
-617.332	25.488	-0.166	-0.139
-616.317	264.939	-0.056	-0.098
-615.303	197.044	0.136	-0.209
-614.288	-62.197	-0.187	0.078
-613.273	185.114	0.141	-0.210
-612.259	-200.000	-0.007	-0.125
-611.244	175.030	-0.144	0.210
-610.230	800.000	0.011	0.033
-609.215	-32.915	0.552	-0.308
-608.201	-122.633	-0.232	0.038
-607.186	-9.735	0.158	0.105
-606.171	-101.434	-0.085	0.021
-605.157	-88.928	0.221	-0.066
-604.142	71.265	0.136	-0.141
-603.128	70.299	-0.192	-0.199
-602.113	111.476	0.057	-0.069
-601.098	800.000	-0.011	0.044
-600.084	-84.323	-0.236	-0.075
-599.069	55.981	-0.107	0.104
-598.055	-141.726	-0.210	-0.021
-597.040	-200.000	-0.059	0.329
-596.025	-200.000	-0.061	-0.387
-595.011	-173.012	-0.079	0.002
-593.996	-144.745	-0.197	0.018
-592.982	-104.994	-0.184	0.042
-591.967	60.848	-0.170	0.169
-590.952	-200.000	0.010	-0.311
-589.938	-144.821	-0.309	0.028
-588.923	99.521	0.130	0.151
-587.909	-74.954	-0.229	-0.082
-586.894	-55.865	-0.269	0.121
-585.879	148.278	-0.042	0.057
-584.865	-133.984	0.353	0.044
-583.850	-200.000	-0.018	-0.244
-582.836	-56.137	0.124	-0.055
-581.821	18.407	-0.106	0.085
-580.806	59.164	-0.113	-0.112
-579.792	-118.723	-0.035	0.006
-578.777	-153.700	-0.395	0.027
-577.763	-200.000	0.055	0.272
-576.748	-200.000	-0.025	-0.285
-575.733	105.375	0.272	-0.323
-574.719	98.699	-0.086	-0.100
-573.704	158.897	-0.026	0.037
-572.690	-109.253	0.139	0.030
-571.675	-200.000	-0.023	-0.211
-570.661	-112.189	0.196	0.039
-569.646	496.012	0.031	-0.072
-568.631	-15.140	-0.178	-0.114
-567.617	265.571	-0.127	0.222
-566.602	800.000	-0.172	0.534
-565.588	96.852	0.166	0.191
-564.573	-200.000	0.010	-0.388
-563.558	-200.000	-0.162	-0.000
-562.544	148.984	0.076	-0.103
-561.529	-200.000	0.002	0.055
-560.515	400.349	0.179	-0.376
-559.500	131.494	-0.217	-0.279
-558.485	88.850	-0.426	-0.475
-557.471	189.984	-0.072	0.108
-556.456	-200.000	0.085	0.423
-555.442	-128.372	-0.125	0.018
-554.427	-200.000	-0.017	0.192
-553.412	-74.615	0.153	-0.055
-552.398	-85.647	-0.076	0.024
-551.383	-21.243	-0.086	-0.053
-550.369	93.909	-0.186	0.211
-549.354	162.738	0.076	-0.106
-548.339	800.000	0.091	-0.327
-547.325	259.133	0.026	0.044
-546.310	800.000	0.006	0.021
-545.296	-39.492	0.240	-0.126
-544.281	357.887	-0.215	-0.430
-543.266	138.241	0.027	0.035
-542.252	-162.456	-0.220	-0.011
-541.237	-47.871	-0.169	-0.082
-540.223	229.282	-0.074	-0.121
-539.208	-117.877	0.177	-0.032
-538.193	418.381	0.054	-0.116
-537.179	242.616	0.050	-0.084
-536.164	-50.423	0.189	0.089
-535.150	-71.902	-0.189	-0.070
-534.135	-200.000	0.049	0.289
-533.121	502.339	-0.039	0.090
-532.106	-25.996	0.091	0.053
-531.091	-200.000	0.015	-0.318
-530.077	-41.621	-0.194	-0.100
-529.062	110.086	0.390	-0.469
-528.048	800.000	-0.084	0.300
-527.033	-14.506	-0.187	0.120
-526.018	-200.000	-0.002	0.243
-525.004	-64.016	0.108	-0.044
-523.989	-64.928	-0.100	-0.040
-522.975	119.098	-0.191	-0.237
-521.960	-125.838	0.199	-0.030
-520.945	64.144	0.371	-0.374
-519.931	181.171	-0.148	0.218
-518.916	800.000	-0.091	0.345
-517.902	52.535	-0.186	0.178
-516.887	-200.000	-0.001	-0.030
-515.872	-200.000	0.027	-0.192
-514.858	-119.390	-0.174	0.030
-513.843	-74.605	0.088	-0.032
-512.829	223.525	-0.055	0.089
-511.814	45.072	0.326	0.301
-510.799	203.729	0.176	0.273
-509.785	-100.657	-0.177	-0.044
-508.770	-30.402	-0.082	-0.047
-507.756	-107.583	0.157	-0.034
-506.741	304.146	-0.164	0.305
-505.726	717.490	-0.041	-0.108
-504.712	424.130	0.088	-0.189
-503.697	-200.000	-0.020	0.515
-502.683	-200.000	0.027	0.119
-501.668	-200.000	-0.027	-0.339
-500.653	40.463	-0.194	-0.175
-499.639	111.145	0.119	0.144
-498.624	-106.902	-0.195	0.043
-497.610	98.198	0.212	0.244
-496.595	-200.000	0.007	0.249
-495.581	-200.000	0.008	0.248
-494.566	800.000	0.025	-0.093
-493.551	-200.000	-0.017	-0.221
-492.537	-188.305	-0.349	-0.004
-491.522	-117.346	0.222	-0.040
-490.508	-200.000	0.008	0.076
-489.493	-120.423	-0.226	0.038
-488.478	800.000	0.008	-0.030
-487.464	120.197	-0.254	0.315
-486.449	97.535	0.180	0.206
-485.435	100.750	-0.228	-0.265
-484.420	54.298	-0.237	0.228
-483.405	800.000	-0.036	0.124
-482.391	684.824	-0.225	-0.586
-481.376	-47.673	-0.078	-0.038
-480.362	800.000	-0.064	-0.272
-479.347	-200.000	-0.013	0.062
-478.332	-21.359	-0.138	-0.084
-477.318	40.415	0.182	-0.164
-476.303	2.513	-0.162	0.117
-475.289	-143.812	-0.252	0.024
-474.274	-122.501	-0.352	0.057
-473.259	220.672	0.200	-0.320
-472.245	358.668	-0.115	-0.229
-471.230	-79.168	0.107	0.036
-470.216	63.464	-0.055	0.055
-469.201	-59.852	-0.147	-0.063
-468.186	-200.000	0.005	0.188
-467.172	-199.018	-0.149	0.001
-466.157	115.865	0.147	-0.180
-465.143	-88.665	0.128	0.038
-464.128	-66.085	-0.347	0.138
-463.113	187.122	0.101	0.150
-462.099	-77.487	0.295	0.102
-461.084	-200.000	0.033	0.339
-460.070	13.574	0.023	0.018
-459.055	27.497	0.109	0.092
-458.040	-87.803	0.203	0.061
-457.026	-15.729	0.051	-0.033
-456.011	7.533	0.169	-0.126
-454.997	-25.914	-0.247	0.145
-453.982	128.567	0.120	0.153
-452.968	-104.668	-0.247	-0.057
-451.953	800.000	0.163	0.465
-450.938	-166.182	0.237	-0.010
-449.924	800.000	-0.035	0.145
-448.909	-131.732	0.197	-0.026
-447.895	800.000	-0.060	-0.191
-446.880	86.275	-0.165	-0.181
-445.865	-22.404	0.294	0.177
-444.851	203.011	0.065	-0.101
-443.836	-8.230	0.324	-0.218
-442.822	-35.541	0.045	-0.024
-441.807	-200.000	-0.027	-0.260
-440.792	-200.000	0.013	0.073
-439.778	800.000	-0.058	-0.168
-438.763	-156.667	-0.035	-0.002
-437.749	-101.479	0.123	-0.030
-436.734	-118.853	0.116	0.020
-435.719	337.956	0.107	0.208
-434.705	78.904	0.176	0.188
-433.690	-57.699	0.280	0.122
-432.676	-101.600	0.201	-0.049
-431.661	-160.001	-0.299	-0.016
-430.646	800.000	-0.097	-0.364
-429.632	-38.019	0.308	-0.163
-428.617	-116.623	0.140	0.026
-427.603	173.694	-0.122	-0.176
-426.588	-49.051	0.291	-0.139
-425.573	211.040	-0.205	-0.322
-424.559	25.847	0.115	0.095
-423.544	120.734	0.028	0.034
-422.530	73.860	0.226	0.237
-421.515	-200.000	0.016	-0.232
-420.500	-30.771	0.042	-0.024
-419.486	473.812	-0.159	0.357
-418.471	-133.131	-0.409	0.052
-417.457	-200.000	-0.016	-0.106
-416.442	-74.354	-0.313	0.113
-415.428	800.000	0.053	0.212
-414.413	18.490	-0.146	0.116
-413.398	-32.608	0.012	0.007
-412.384	3.655	0.143	-0.104
-411.369	800.000	0.103	-0.304
-410.355	-200.000	0.082	-0.373
-409.340	15.428	-0.053	0.041
-408.325	85.359	0.167	-0.182
-407.311	701.769	-0.083	-0.218
-406.296	-200.000	-0.253	0.001
-405.282	-200.000	-0.198	0.000
-404.267	-7.118	0.078	-0.052
-403.252	181.836	0.090	0.132
-402.238	-61.555	0.145	-0.061
-401.223	8.683	-0.385	-0.289
-400.209	-110.623	0.102	-0.021
-399.194	-89.062	0.220	0.065
-398.179	698.897	-0.041	0.108
-397.165	-49.810	0.111	0.052
-396.150	134.899	0.087	0.112
-395.136	-200.000	-0.068	0.299
-394.121	98.000	-0.073	0.084
-393.106	-56.596	-0.279	0.123
-392.092	-200.000	-0.072	-0.343
-391.077	800.000	-0.038	-0.122
-390.063	-26.203	0.180	0.105
-389.048	-200.000	0.083	-0.476
-388.033	-128.011	0.042	-0.006
-387.019	-31.533	-0.100	0.056
-386.004	-117.369	0.241	0.044
-384.990	70.165	0.072	0.074
-383.975	-52.129	0.194	0.090
-382.960	-200.000	0.055	-0.318
-381.946	-200.000	0.022	0.206
-380.931	-200.000	0.002	0.052
-379.917	144.666	-0.074	0.099
-378.902	-53.654	-0.245	-0.111
-377.888	-52.684	-0.223	-0.102
-376.873	800.000	0.066	-0.181
-375.858	800.000	0.098	0.323
-374.844	163.601	-0.131	0.184
-373.829	41.081	-0.343	-0.308
-372.815	-112.074	0.404	0.081
-371.800	61.971	0.080	-0.080
-370.785	-115.856	0.413	0.077
-369.771	-119.535	-0.152	-0.026
-368.756	-135.736	-0.077	-0.009
-367.742	800.000	-0.058	-0.160
-366.727	-140.375	0.030	-0.003
-365.712	800.000	0.069	0.292
-364.698	-92.957	0.191	-0.053
-363.683	-200.000	0.044	-0.235
-362.669	93.191	0.168	0.189
-361.654	-158.152	0.042	0.002
-360.639	-70.868	0.187	0.070
-359.625	242.365	-0.159	0.264
-358.610	10.899	-0.072	0.055
-357.596	-200.000	0.081	-0.370
-356.581	-0.794	-0.040	0.028
-355.566	-150.631	-0.468	0.036
-354.552	-137.586	0.220	-0.025
-353.537	-1.767	-0.169	-0.118
-352.523	-200.000	-0.029	0.216
-351.508	-93.498	0.115	0.032
-350.493	86.651	-0.176	-0.194
-349.479	-200.000	-0.055	-0.271
-348.464	-73.725	0.286	-0.103
-347.450	800.000	0.082	-0.267
-346.435	756.103	0.116	0.312
-345.420	333.271	0.086	-0.165
-344.406	-180.571	0.172	-0.004
-343.391	-68.046	0.279	0.108
-342.377	-200.000	-0.024	0.413
-341.362	-13.732	-0.189	0.121
-340.348	77.115	0.190	0.200
-339.333	-24.633	0.303	0.179
-338.318	765.925	0.070	-0.188
-337.304	-4.772	0.314	-0.215
-336.289	-123.695	-0.320	-0.050
-335.275	10.668	-0.217	-0.165
-334.260	219.030	-0.063	0.100
-333.245	210.875	-0.189	0.296
-332.231	-6.441	-0.103	-0.070
-331.216	121.634	0.217	0.268
-330.202	-123.293	-0.287	0.046
-329.187	-65.329	0.148	-0.059
-328.172	-87.523	0.046	-0.014
-327.158	332.574	-0.037	-0.072
-326.143	-114.732	0.158	-0.030
-325.129	800.000	-0.055	0.222
-324.114	-87.040	0.123	0.037
-323.099	-146.370	0.350	-0.030
-322.085	39.169	-0.269	0.239
-321.070	77.428	-0.299	0.316
-320.056	-200.000	-0.025	0.205
-319.041	-200.000	0.003	0.109
-318.026	-200.000	0.037	0.256
-317.012	209.892	-0.171	0.266
-315.997	77.500	-0.164	0.174
-314.983	101.683	-0.275	0.319
-313.968	692.749	0.077	-0.200
-312.953	-64.838	-0.250	0.100
-311.939	66.757	-0.075	-0.076
-310.924	-52.803	-0.175	0.080
-309.910	-77.142	-0.136	-0.047
-308.895	201.482	-0.166	-0.254
-307.880	-200.000	-0.015	-0.110
-306.866	235.339	0.100	0.164
-305.851	259.862	0.086	-0.148
-304.837	307.907	0.124	0.230
-303.822	207.902	0.100	0.155
-302.807	68.926	0.196	-0.199
-301.793	-200.000	0.011	-0.082
-300.778	-30.649	0.097	-0.055
-299.764	-71.999	-0.332	-0.122
-298.749	-200.000	-0.012	-0.069
-297.735	-200.000	-0.035	-0.198
-296.720	800.000	-0.106	0.290
-295.705	-94.979	0.199	0.053
-294.691	233.884	-0.250	0.408
-293.676	-64.515	0.292	0.118
-292.662	-200.000	0.004	-0.117
-291.647	800.000	0.034	0.095
-290.632	-99.796	0.147	-0.036
-289.618	-52.202	-0.098	-0.045
-288.603	172.906	0.271	0.388
-287.589	800.000	-0.051	0.155
-286.574	261.948	-0.219	0.377
-285.559	-200.000	0.011	-0.288
-284.545	798.320	0.135	-0.368
-283.530	-46.206	0.242	-0.118
-282.516	-23.118	0.179	-0.107
-281.501	800.000	-0.025	-0.069
-280.486	800.000	0.075	0.289
-279.472	-49.024	0.088	-0.042
-278.457	22.114	0.103	-0.083
-277.443	11.825	-0.114	-0.087
-276.428	149.680	0.065	0.088
-275.413	-12.561	0.131	-0.085
-274.399	159.168	-0.141	-0.194
-273.384	800.000	-0.052	0.188
-272.370	209.020	-0.212	0.330
-271.355	-200.000	0.066	-0.349
-270.340	-0.045	-0.222	-0.157
-269.326	-73.358	0.309	0.112
-268.311	-19.076	0.262	0.162
-267.297	149.016	0.052	0.069
-266.282	-126.085	-0.206	0.031
-265.267	-200.000	-0.029	-0.188
-264.253	57.397	-0.145	-0.140
-263.238	800.000	0.025	0.077
-262.224	-0.679	0.286	-0.201
-261.209	800.000	-0.059	-0.184
-260.195	-108.227	0.309	0.066
-259.180	-84.024	-0.229	-0.072
-258.165	800.000	-0.037	0.134
-257.151	-46.061	-0.138	0.067
-256.136	800.000	-0.033	-0.140
-255.122	592.781	0.117	-0.287
-254.107	27.069	-0.171	-0.142
-253.092	-200.000	0.003	-0.140
-252.078	-200.000	0.014	-0.205
-251.063	800.000	0.029	0.119
-250.049	-171.977	-0.302	0.010
-249.034	371.621	-0.095	0.191
-248.019	-200.000	0.070	-0.371
-247.005	22.952	0.065	-0.053
-245.990	-88.496	0.150	-0.044
-244.976	39.126	-0.285	-0.253
-243.961	24.821	-0.222	0.182
-242.946	706.505	-0.107	0.281
-241.932	138.119	0.110	-0.143
-240.917	145.349	0.013	-0.018
-239.903	-200.000	0.032	-0.229
-238.888	-124.264	0.168	-0.026
-237.873	-35.737	0.127	-0.068
-236.859	-156.451	0.429	0.026
-235.844	-200.000	-0.043	0.288
-234.830	-22.580	0.455	0.272
-233.815	-83.143	-0.294	0.094
-232.800	-200.000	0.059	-0.262
-231.786	-117.498	0.131	0.023
-230.771	-200.000	-0.020	0.086
-229.757	-22.855	-0.098	-0.058
-228.742	-97.716	0.258	0.066
-227.727	-93.706	-0.448	-0.122
-226.713	133.068	0.084	0.107
-225.698	800.000	-0.090	-0.266
-224.684	-200.000	-0.018	0.230
-223.669	-153.321	-0.232	-0.016
-222.655	-53.570	-0.225	-0.102
-221.640	-1.380	-0.085	0.059
-220.625	21.858	-0.109	-0.088
-219.611	53.187	-0.160	-0.151
-218.596	666.026	0.096	0.245
-217.582	800.000	-0.054	0.219
-216.567	-102.655	0.113	-0.027
-215.552	38.288	-0.134	-0.118
-214.538	54.313	0.127	-0.121
-213.523	-156.186	-0.247	-0.015
-212.509	91.200	0.129	0.143
-211.494	-200.000	-0.011	0.492
-210.479	-98.802	-0.154	0.039
-209.465	-200.000	-0.024	-0.217
-208.450	41.602	0.167	0.149
-207.436	-21.987	0.087	0.052
-206.421	-48.005	0.075	-0.036
-205.406	379.924	0.077	-0.156
-204.392	16.282	-0.077	-0.060
-203.377	800.000	-0.039	-0.162
-202.363	519.222	0.030	-0.070
-201.348	800.000	-0.010	-0.034
-200.333	-200.000	0.047	-0.205
-199.319	-0.289	-0.192	-0.135
-198.304	744.784	0.087	0.230
-197.290	343.354	0.078	0.152
-196.275	-43.490	-0.153	0.077
-195.260	165.404	0.156	-0.218
-194.246	230.514	-0.082	0.132
-193.231	104.188	-0.222	0.258
-192.217	-16.194	0.318	0.200
-191.202	-48.319	-0.066	-0.031
-190.187	576.655	0.060	-0.146
-189.173	-11.224	0.101	0.066
-188.158	125.614	0.135	0.168
-187.144	-200.000	-0.072	0.322
-186.129	-81.071	-0.210	-0.069
-185.114	414.661	0.081	-0.170
-184.100	-113.541	0.229	-0.044
-183.085	109.681	0.183	0.216
-182.071	-112.445	0.059	0.012
-181.056	-99.285	-0.244	0.061
-180.042	-200.000	-0.004	0.574
-179.027	-52.175	0.230	-0.105
-178.012	30.798	-0.032	-0.027
-176.998	-200.000	0.076	-0.526
-175.983	-200.000	0.017	0.276
-174.969	18.708	0.202	-0.160
-173.954	-64.449	0.053	-0.021
-172.939	333.937	0.100	-0.191
-171.925	-173.248	0.243	0.007
-170.910	-200.000	-0.029	0.239
-169.896	52.395	0.286	0.269
-168.881	-128.779	0.164	-0.023
-167.866	-108.279	0.217	-0.046
-166.852	199.415	0.181	-0.275
-165.837	133.088	-0.223	-0.284
-164.823	86.497	0.203	-0.220
-163.808	-200.000	0.053	-0.241
-162.793	-95.351	-0.257	0.068
-161.779	188.786	-0.061	0.090
-160.764	62.672	0.107	0.106
-159.750	203.260	0.028	-0.042
-158.735	-200.000	-0.017	0.218
-157.720	-113.142	0.252	0.049
-156.706	-75.928	-0.204	-0.071
-155.691	800.000	-0.107	0.320
-154.677	-92.834	0.131	-0.036
-153.662	-125.262	-0.224	0.034
-152.647	-65.627	0.191	0.075
-151.633	-200.000	-0.002	-0.207
-150.618	-200.000	-0.007	-0.172
-149.604	800.000	-0.018	0.055
-148.589	-200.000	0.044	0.418
-147.574	6.225	-0.212	-0.155
-146.560	438.923	-0.128	-0.275
-145.545	-62.021	0.339	-0.140
-144.531	-200.000	-0.032	0.308
-143.516	35.203	-0.180	-0.156
-142.502	319.104	-0.108	-0.201
-141.487	-200.000	0.034	0.259
-140.472	288.090	-0.027	-0.047
-139.458	209.788	-0.128	-0.198
-138.443	43.003	-0.112	0.100
-137.429	-93.899	0.192	0.052
-136.414	-200.000	-0.017	0.136
-135.399	32.738	-0.232	-0.198
-134.385	-109.066	0.308	0.065
-133.370	265.922	-0.023	-0.039
-132.356	-69.109	0.044	-0.017
-131.341	800.000	-0.031	-0.111
-130.326	99.654	-0.068	-0.077
-129.312	117.284	-0.193	0.233
-128.297	-200.000	0.067	0.391
-127.283	-108.543	0.374	-0.079
-126.268	-200.000	0.012	0.240
-125.253	32.459	-0.152	0.130
-124.239	142.981	0.255	0.334
-123.224	524.116	0.010	0.023
-122.210	38.929	0.154	0.135
