DTS Sentinel unit serial number:	SN413079Multiplexer serial number:	ORYXHardware model number:	OX4-SRSoftware version number:	ORYX F/W v4.00 Oryx Data Collector v3.7.2.0data status	okinstallation	princeton_trtdifferential loss correction	single-endedforward channel	channel 1reverse channel	N/Adate	2019/09/19time	11:06:35forward acquisition time	60.00reverse acquisition time	0.00gamma	496.2192k internal	0.2339k external	0.2339temperature offset calibration	1.0008default loss term (dB/km)	0.3790temperature slope calibration	1.0000multiplexer offset coefficient	1.0000multiplexer slope coefficient	1.0000fibre end	0.00T internal ref (°C)	25.00T ext. ref 1 (°C)	0.77T ext. ref 2 (°C)	20.56length (m)	temperature (°C)	Stokes	anti-Stokes-747.200	-35.599	0.242	-0.132
-746.185	144.446	-0.222	0.297
-745.171	-65.705	-0.222	0.089
-744.156	173.283	-0.266	0.385
-743.142	337.445	-0.093	0.182
-742.127	-14.461	-0.134	0.086
-741.112	-124.862	-0.195	0.030
-740.098	800.000	-0.134	0.489
-739.083	-123.170	-0.181	0.029
-738.069	210.119	-0.088	0.138
-737.054	356.061	-0.122	0.243
-736.039	-19.844	0.145	-0.090
-735.025	-110.798	0.463	-0.096
-734.010	-4.210	-0.310	0.215
-732.996	-114.057	-0.163	-0.032
-731.981	-45.353	0.026	0.013
-730.966	435.264	-0.093	-0.203
-729.952	-70.891	-0.420	-0.159
-728.937	-200.000	0.013	0.169
-727.923	72.557	-0.170	0.178
-726.908	-45.611	-0.088	-0.044
-725.894	-139.433	-0.143	-0.015
-724.879	139.609	-0.188	-0.248
-723.864	-22.844	0.060	0.036
-722.850	450.186	-0.117	0.259
-721.835	150.269	-0.214	0.292
-720.821	-200.000	0.026	-0.119
-719.806	-136.236	0.158	-0.019
-718.791	-159.895	0.255	-0.014
-717.777	740.301	-0.066	0.176
-716.762	-63.465	-0.149	0.061
-715.748	-83.861	0.158	-0.050
-714.733	41.959	0.084	0.076
-713.718	97.150	-0.019	0.022
-712.704	-119.781	-0.227	0.039
-711.689	140.822	-0.210	0.279
-710.675	57.004	0.093	-0.091
-709.660	435.576	-0.074	-0.161
-708.645	119.980	0.279	-0.347
-707.631	-79.887	-0.261	0.088
-706.616	-80.338	-0.114	0.038
-705.602	46.293	0.111	0.103
-704.587	-48.284	-0.020	-0.010
-703.572	427.753	0.150	0.325
-702.558	-200.000	-0.066	0.354
-701.543	-2.203	0.091	0.064
-700.529	40.508	0.142	-0.128
-699.514	-200.000	0.052	-0.293
-698.499	-111.903	-0.151	-0.031
-697.485	-62.111	0.275	-0.115
-696.470	800.000	0.063	0.190
-695.456	-67.034	-0.171	-0.068
-694.441	-11.686	0.110	-0.072
-693.426	-89.880	0.103	-0.030
-692.412	-6.480	0.112	0.076
-691.397	-200.000	-0.058	-0.281
-690.383	-141.224	-0.286	-0.029
-689.368	75.854	0.285	-0.302
-688.354	98.214	-0.222	-0.256
-687.339	-12.482	0.315	0.206
-686.324	-200.000	0.009	-0.080
-685.310	-59.047	-0.312	-0.135
-684.295	-123.685	-0.181	0.029
-683.281	-93.223	-0.166	-0.046
-682.266	-46.233	0.052	0.026
-681.251	69.062	0.009	0.009
-680.237	414.150	-0.029	-0.061
-679.222	-14.095	-0.261	-0.169
-678.208	-56.941	0.003	-0.001
-677.193	-35.135	0.147	-0.080
-676.178	797.714	0.131	-0.362
-675.164	-176.033	-0.098	0.003
-674.149	256.735	-0.038	0.066
-673.135	61.026	0.112	0.111
-672.120	-62.971	0.084	0.035
-671.105	-69.651	-0.355	0.136
-670.091	6.428	-0.132	0.098
-669.076	-28.948	-0.134	-0.077
-668.062	-114.254	0.009	0.002
-667.047	-67.731	0.185	-0.072
-666.032	800.000	0.076	-0.236
-665.018	800.000	0.081	-0.290
-664.003	261.374	0.021	-0.037
-662.989	-200.000	-0.055	0.449
-661.974	800.000	0.006	0.025
-660.959	111.080	0.115	0.139
-659.945	463.988	-0.148	0.330
-658.930	-16.602	-0.120	0.076
-657.916	-158.279	-0.492	-0.029
-656.901	-200.000	0.003	0.131
-655.886	-200.000	-0.037	0.233
-654.872	800.000	-0.067	0.260
-653.857	293.619	0.082	0.149
-652.843	368.175	-0.059	-0.119
-651.828	800.000	0.108	-0.343
-650.814	-170.435	-0.194	-0.007
-649.799	58.055	0.132	-0.129
-648.784	-79.230	0.067	0.023
-647.770	-155.087	-0.097	0.006
-646.755	48.953	-0.182	0.171
-645.741	-200.000	0.008	0.133
-644.726	268.709	0.049	-0.085
-643.711	-200.000	0.013	0.412
-642.697	225.486	-0.042	0.068
-641.682	68.892	0.175	0.180
-640.668	10.722	-0.145	0.111
-639.653	-200.000	-0.025	-0.261
-638.638	33.280	-0.062	0.054
-637.624	-69.957	0.173	0.066
-636.609	-67.830	-0.139	-0.054
-635.595	-64.771	-0.470	-0.190
-634.580	41.824	-0.204	-0.185
-633.565	411.438	-0.042	-0.089
-632.551	360.760	0.017	-0.035
-631.536	-83.843	-0.198	-0.063
-630.522	213.591	0.223	0.352
-629.507	-200.000	0.003	0.223
-628.492	-45.951	0.140	0.069
-627.478	-90.899	0.334	0.096
-626.463	-22.657	-0.315	0.190
-625.449	800.000	0.060	0.205
-624.434	-130.806	-0.232	0.031
-623.419	800.000	0.039	-0.171
-622.405	206.469	-0.093	-0.145
-621.390	-93.450	-0.248	0.069
-620.376	214.829	-0.057	-0.091
-619.361	-106.563	-0.326	0.073
-618.346	-1.595	0.118	0.083
-617.332	-49.992	0.107	0.051
-616.317	-94.602	-0.369	0.100
-615.303	800.000	0.039	0.145
-614.288	699.340	0.109	-0.285
-613.273	204.204	-0.020	-0.030
-612.259	14.336	-0.074	-0.058
-611.244	-88.882	-0.315	0.093
-610.230	158.896	-0.070	-0.098
-609.215	432.461	0.159	-0.345
-608.201	48.982	-0.173	-0.163
-607.186	176.119	-0.175	-0.254
-606.171	800.000	0.053	0.213
-605.157	688.824	0.114	-0.298
-604.142	-200.000	-0.016	-0.194
-603.128	50.986	-0.131	-0.124
-602.113	501.825	-0.141	-0.325
-601.098	-200.000	-0.030	-0.185
-600.084	-200.000	-0.038	-0.234
-599.069	800.000	-0.168	-0.532
-598.055	-86.387	0.212	0.065
-597.040	153.601	-0.141	0.193
-596.025	800.000	-0.123	-0.521
-595.011	36.458	-0.074	-0.065
-593.996	80.574	-0.148	-0.159
-592.982	10.450	0.394	0.299
-591.967	-200.000	-0.025	0.111
-590.952	-21.676	0.133	0.081
-589.938	-49.892	-0.262	-0.124
-588.923	-12.893	-0.279	0.181
-587.909	-200.000	-0.046	-0.414
-586.894	-24.070	0.279	0.166
-585.879	-74.033	-0.460	0.166
-584.865	-110.261	0.060	-0.012
-583.850	23.736	0.090	-0.074
-582.836	-200.000	0.012	-0.135
-581.821	-151.174	-0.253	0.019
-580.806	-200.000	0.007	-0.184
-579.792	-200.000	-0.001	-0.348
-578.777	-47.702	0.056	0.027
-577.763	800.000	-0.064	0.195
-576.748	344.030	0.241	0.471
-575.733	61.621	0.003	-0.003
-574.719	752.296	-0.047	0.128
-573.704	-200.000	-0.040	0.370
-572.690	-55.371	-0.233	0.104
-571.675	-200.000	-0.026	0.312
-570.661	-77.992	-0.252	0.086
-569.646	-135.187	0.193	0.023
-568.631	112.989	-0.052	0.063
-567.617	-200.000	-0.029	0.218
-566.602	-200.000	-0.032	0.185
-565.588	200.863	0.007	-0.010
-564.573	800.000	-0.046	-0.173
-563.558	-200.000	-0.010	0.075
-562.544	-14.550	0.023	-0.015
-561.529	-10.068	-0.023	0.015
-560.515	179.096	0.155	-0.226
-559.500	-140.770	0.232	0.024
-558.485	219.211	-0.113	-0.180
-557.471	-86.047	0.333	-0.103
-556.456	74.121	0.057	-0.059
-555.442	289.884	-0.144	0.261
-554.427	-133.667	-0.364	-0.045
-553.412	-58.353	-0.232	-0.100
-552.398	-117.278	-0.216	-0.039
-551.383	800.000	0.073	0.246
-550.369	-145.662	-0.160	0.014
-549.354	400.599	-0.134	-0.280
-548.339	432.140	-0.223	-0.482
-547.325	189.260	-0.069	0.103
-546.310	397.698	-0.139	0.290
-545.296	-59.038	-0.122	-0.052
-544.281	51.531	0.112	-0.106
-543.266	-115.560	0.265	-0.050
-542.252	52.260	-0.090	-0.085
-541.237	10.092	0.184	0.139
-540.223	-40.278	-0.236	0.122
-539.208	51.461	-0.367	0.347
-538.193	800.000	-0.071	-0.200
-537.179	-200.000	0.018	-0.183
-536.164	112.451	-0.161	0.194
-535.150	126.954	-0.047	0.060
-534.135	-74.872	-0.128	0.046
-533.121	-200.000	-0.033	-0.232
-532.106	215.025	-0.132	0.208
-531.091	-112.367	-0.110	-0.022
-530.077	-19.580	0.087	-0.053
-529.062	-200.000	-0.013	-0.180
-528.048	752.626	-0.080	0.215
-527.033	-200.000	-0.024	-0.171
-526.018	67.816	-0.230	-0.234
-525.004	532.415	-0.074	0.174
-523.989	9.124	0.234	-0.176
-522.975	-19.763	-0.281	-0.173
-521.960	115.112	-0.168	-0.204
-520.945	-200.000	-0.009	-0.265
-519.931	4.487	0.198	0.145
-518.916	-109.447	-0.233	-0.049
-517.902	800.000	-0.107	0.299
-516.887	356.983	0.167	-0.330
-515.872	800.000	0.066	-0.190
-514.858	80.510	0.242	0.259
-513.843	-200.000	0.009	0.090
-512.829	131.613	0.141	0.181
-511.814	284.956	-0.047	-0.085
-510.799	30.421	-0.109	-0.093
-509.785	-67.185	-0.213	-0.083
-508.770	-200.000	0.013	-0.197
-507.756	-114.655	-0.544	-0.104
-506.741	-200.000	0.056	-0.355
-505.726	329.312	0.044	-0.085
-504.712	521.336	-0.081	0.188
-503.697	-59.284	-0.185	-0.079
-502.683	-84.113	0.137	0.043
-501.668	800.000	-0.060	-0.171
-500.653	-118.721	0.449	-0.079
-499.639	485.483	-0.064	0.145
-498.624	-200.000	0.027	-0.152
-497.610	49.794	-0.357	-0.335
-496.595	50.489	0.121	-0.114
-495.581	152.406	0.157	-0.213
-494.566	-200.000	-0.008	-0.159
-493.551	158.466	-0.046	-0.064
-492.537	-101.336	-0.056	0.014
-491.522	-141.730	-0.089	0.009
-490.508	-200.000	-0.002	0.046
-489.493	-130.060	0.066	-0.009
-488.478	102.298	0.394	-0.457
-487.464	-66.314	-0.560	-0.221
-486.449	-57.671	-0.205	-0.089
-485.435	-125.982	0.260	-0.039
-484.420	-122.760	0.167	0.027
-483.405	-133.181	-0.156	-0.020
-482.391	48.157	-0.100	0.092
-481.376	800.000	-0.121	-0.352
-480.362	182.346	-0.140	-0.205
-479.347	45.052	0.216	0.198
-478.332	174.446	-0.171	-0.246
-477.318	-20.837	0.203	0.123
-476.303	-81.506	-0.241	0.079
-475.289	-70.242	-0.274	0.103
-474.274	37.355	-0.061	-0.054
-473.259	1.453	0.203	-0.145
-472.245	-200.000	0.047	0.497
-471.230	-115.662	-0.439	-0.082
-470.216	-114.598	0.165	0.031
-469.201	-200.000	-0.048	-0.283
-468.186	-136.577	-0.095	-0.011
-467.172	279.893	-0.169	-0.300
-466.157	-200.000	0.023	-0.126
-465.143	167.422	0.119	-0.167
-464.128	68.957	-0.224	0.228
-463.113	-200.000	0.006	-0.163
-462.099	-195.294	0.312	-0.002
-461.084	95.017	-0.132	0.149
-460.070	82.758	-0.206	0.222
-459.055	97.809	0.050	-0.057
-458.040	391.186	-0.130	-0.268
-457.026	800.000	0.050	0.153
-456.011	187.232	0.151	0.224
-454.997	77.725	-0.056	-0.059
-453.982	800.000	0.054	-0.212
-452.968	-200.000	-0.015	-0.156
-451.953	201.959	-0.196	0.300
-450.938	13.649	0.309	-0.238
-449.924	259.158	-0.217	-0.370
-448.909	-127.785	0.086	-0.012
-447.895	182.649	0.087	0.127
-446.880	800.000	0.049	0.206
-445.865	418.411	-0.054	0.115
-444.851	-35.031	0.292	0.158
-443.836	-136.053	0.334	0.039
-442.822	184.716	0.223	0.328
-441.807	41.648	0.110	0.099
-440.792	321.624	0.098	-0.186
-439.778	132.099	0.202	0.258
-438.763	-200.000	0.061	0.385
-437.749	-70.084	0.266	-0.100
-436.734	800.000	0.044	0.146
-435.719	-66.114	-0.227	0.090
-434.705	80.585	0.181	0.193
-433.690	49.767	0.070	-0.066
-432.676	-200.000	-0.004	0.019
-431.661	197.447	-0.047	0.071
-430.646	-200.000	-0.003	0.206
-429.632	206.095	0.190	0.293
-428.617	73.483	0.164	-0.170
-427.603	130.565	-0.188	0.238
-426.588	11.697	0.189	-0.144
-425.573	238.349	-0.055	-0.090
-424.559	194.679	-0.237	0.356
-423.544	487.070	0.262	0.593
-422.530	-27.768	0.155	0.089
-421.515	154.442	0.141	-0.191
-420.500	436.306	0.055	0.118
-419.486	26.365	-0.259	0.214
-418.471	10.308	0.112	0.085
-417.457	154.760	-0.138	-0.187
-416.442	-10.953	-0.108	0.071
-415.428	249.042	0.009	-0.015
-414.413	444.802	0.110	-0.240
-413.398	38.856	0.173	0.153
-412.384	-200.000	-0.045	-0.230
-411.369	-200.000	-0.020	0.121
-410.355	-200.000	-0.008	0.135
-409.340	-112.509	0.061	-0.012
-408.325	800.000	-0.051	0.201
-407.311	-38.362	-0.338	0.177
-406.296	-200.000	-0.015	0.142
-405.282	-200.000	-0.038	0.517
-404.267	212.862	-0.053	-0.082
-403.252	78.289	0.174	0.184
-402.238	-160.157	0.269	-0.014
-401.223	-66.314	0.190	-0.075
-400.209	93.245	0.101	-0.113
-399.194	800.000	0.059	-0.199
-398.179	475.031	0.131	0.293
-397.165	-41.126	0.322	0.164
-396.150	-85.296	-0.080	-0.025
-395.136	33.854	0.210	-0.181
-394.121	617.273	0.036	-0.090
-393.106	-106.679	0.315	0.069
-392.092	197.668	-0.095	0.144
-391.077	102.944	-0.136	0.157
-390.063	636.141	-0.101	0.254
-389.048	-200.000	-0.093	-0.440
-388.033	-200.000	0.052	0.362
-387.019	-25.700	-0.158	-0.092
-386.004	-144.953	-0.445	0.040
-384.990	800.000	-0.037	-0.117
-383.975	800.000	-0.026	-0.077
-382.960	25.481	-0.178	0.147
-381.946	-200.000	-0.004	-0.251
-380.931	63.593	0.149	-0.148
-379.917	34.593	-0.249	-0.215
-378.902	-173.546	0.093	-0.003
-377.888	-28.247	0.123	-0.070
-376.873	196.913	0.035	0.052
-375.858	-63.538	0.223	0.091
-374.844	186.018	0.288	-0.423
-373.829	800.000	0.073	0.285
-372.815	-200.000	0.006	0.311
-371.800	96.357	-0.087	-0.099
-370.785	497.004	0.073	-0.165
-369.771	451.700	0.053	-0.117
-368.756	-53.973	-0.094	0.043
-367.742	-200.000	0.045	0.405
-366.727	-200.000	0.033	-0.146
-365.712	-200.000	-0.004	0.084
-364.698	800.000	0.122	-0.336
-363.683	-64.392	0.213	-0.086
-362.669	-166.783	-0.130	-0.005
-361.654	-89.694	0.337	-0.097
-360.639	-122.202	0.213	-0.034
-359.625	-38.166	0.085	-0.045
-358.610	-67.050	0.196	0.076
-357.596	26.058	-0.252	-0.208
-356.581	32.089	-0.181	0.155
-355.566	-115.505	0.202	-0.038
-354.552	359.429	0.080	0.158
-353.537	209.828	0.276	0.428
-352.523	-200.000	-0.009	0.131
-351.508	634.895	0.070	-0.176
-350.493	-44.612	0.192	-0.095
-349.479	164.694	-0.132	0.183
-348.464	-145.301	-0.122	-0.011
-347.450	-49.035	0.206	0.097
-346.435	-166.121	-0.175	0.007
-345.420	58.528	-0.033	-0.032
-344.406	-200.000	-0.002	-0.348
-343.391	-200.000	0.015	0.245
-342.377	145.594	-0.161	0.212
-341.362	263.656	-0.192	0.329
-340.348	-89.096	-0.203	0.059
-339.333	107.057	0.305	0.358
-338.318	-11.572	-0.036	-0.023
-337.304	100.056	0.064	-0.073
-336.289	7.320	-0.077	0.057
-335.275	510.695	-0.119	-0.274
-334.260	800.000	-0.115	-0.395
-333.245	155.381	0.211	0.287
-332.231	567.689	-0.099	-0.238
-331.216	-111.987	0.312	-0.062
-330.202	-50.315	0.406	0.189
-329.187	-200.000	-0.019	0.200
-328.172	800.000	-0.037	0.131
-327.158	-200.000	-0.028	-0.145
-326.143	-25.908	0.125	0.072
-325.129	-50.664	0.298	0.139
-324.114	-73.274	-0.137	0.050
-323.099	-68.999	-0.147	-0.056
-322.085	800.000	-0.091	-0.256
-321.070	314.289	-0.030	-0.056
-320.056	158.942	-0.081	-0.111
-319.041	104.596	0.084	-0.097
-318.026	20.832	0.310	-0.248
-317.012	-88.460	-0.715	0.211
-315.997	-200.000	0.048	-0.396
-314.983	-200.000	0.002	-0.040
-313.968	-200.000	-0.023	-0.166
-312.953	800.000	0.021	-0.063
-311.939	-10.638	0.399	0.260
-310.924	800.000	-0.063	0.247
-309.910	394.821	-0.077	0.158
-308.895	-103.886	0.333	-0.077
-307.880	272.407	-0.218	0.380
-306.866	-98.524	0.218	-0.055
-305.851	-116.754	0.093	0.017
-304.837	0.445	0.239	0.168
-303.822	-45.450	-0.113	-0.055
-302.807	44.922	-0.042	-0.038
-301.793	-130.016	0.182	-0.025
-300.778	800.000	-0.054	-0.201
-299.764	-147.271	0.198	-0.017
-298.749	-72.770	0.276	-0.100
-297.735	38.098	0.155	-0.136
-296.720	69.191	0.172	0.174
-295.705	299.265	-0.143	0.260
-294.691	-103.347	-0.112	-0.026
-293.676	-109.603	-0.247	0.051
-292.662	363.576	0.091	-0.180
-291.647	-79.364	0.444	0.148
-290.632	-200.000	-0.037	0.245
-289.618	-200.000	0.008	0.489
-288.603	182.889	0.165	0.240
-287.589	36.941	0.132	-0.115
-286.574	3.742	-0.266	-0.191
-285.559	63.193	-0.067	-0.066
-284.545	-200.000	-0.001	0.061
-283.530	-50.164	-0.045	0.021
-282.516	338.725	0.038	-0.072
-281.501	201.341	-0.097	0.147
-280.486	9.901	-0.153	0.115
-279.472	-184.284	-0.269	0.004
-278.457	-200.000	0.023	0.117
-277.443	348.684	-0.183	-0.355
-276.428	-162.260	0.143	-0.007
-275.413	271.119	0.184	0.320
-274.399	-144.544	0.157	-0.014
-273.384	229.874	0.173	0.278
-272.370	-88.992	0.204	0.059
-271.355	45.097	0.010	-0.009
-270.340	-82.342	-0.454	0.146
-269.326	17.102	-0.109	0.085
-268.311	42.370	-0.164	-0.147
-267.297	379.426	-0.142	-0.286
-266.282	31.572	0.261	-0.221
-265.267	-200.000	0.011	0.196
-264.253	72.636	0.141	0.145
-263.238	800.000	-0.127	0.374
-262.224	-161.210	-0.657	0.034
-261.209	800.000	-0.018	-0.066
-260.195	800.000	-0.079	0.251
-259.180	-200.000	0.099	0.483
-258.165	398.401	0.091	0.188
-257.151	711.528	-0.075	-0.194
-256.136	-200.000	-0.021	0.107
-255.122	-73.522	0.289	-0.104
-254.107	-9.170	-0.200	-0.131
-253.092	-120.388	0.113	-0.019
-252.078	109.252	-0.197	0.232
-251.063	473.148	-0.119	-0.264
-250.049	800.000	0.031	-0.093
-249.034	-147.721	-0.210	0.017
-248.019	-30.785	0.201	-0.112
-247.005	800.000	-0.033	-0.124
-245.990	-111.466	0.130	-0.026
-244.976	800.000	0.054	0.154
-243.961	-200.000	0.006	-0.263
-242.946	-106.176	0.224	-0.049
-241.932	51.482	0.141	0.132
-240.917	-140.870	0.084	-0.009
-239.903	-93.660	0.083	0.023
-238.888	50.572	0.161	-0.149
-237.873	559.674	0.109	0.260
-236.859	43.110	0.255	-0.229
-235.844	-81.136	-0.189	-0.061
-234.830	1.683	-0.168	-0.119
-233.815	-107.927	-0.127	-0.027
-232.800	-36.687	-0.315	0.167
-231.786	-200.000	0.023	0.138
-230.771	-59.061	-0.202	0.086
-229.757	-167.258	0.089	0.004
-228.742	800.000	-0.029	0.107
-227.727	-25.001	0.324	-0.189
-226.713	800.000	-0.043	0.132
-225.698	27.814	0.448	-0.371
-224.684	191.956	0.162	0.240
-223.669	283.024	-0.107	-0.188
-222.655	800.000	-0.061	0.193
-221.640	50.225	0.489	0.454
-220.625	215.634	0.060	0.093
-219.611	-200.000	-0.006	-0.230
-218.596	194.684	0.011	0.017
-217.582	-100.058	0.336	0.082
-216.567	-118.658	0.277	-0.048
-215.552	19.986	-0.255	0.202
-214.538	-28.796	-0.193	0.109
-213.523	33.635	0.204	-0.175
-212.509	589.930	0.031	-0.076
-211.494	14.710	-0.397	-0.305
-210.479	305.189	0.146	-0.267
-209.465	-27.682	0.057	0.032
-208.450	-70.259	0.128	-0.048
-207.436	-156.680	-0.085	0.005
-206.421	800.000	0.114	0.369
-205.406	201.485	-0.128	-0.194
-204.392	87.392	-0.091	0.099
-203.377	800.000	-0.018	-0.073
-202.363	66.601	-0.237	0.236
-201.348	-65.505	-0.039	0.015
-200.333	88.512	0.112	-0.122
-199.319	-200.000	-0.041	-0.341
-198.304	-200.000	-0.067	-0.431
-197.290	150.036	0.348	-0.464
-196.275	-128.409	0.173	0.024
-195.260	-97.158	-0.187	-0.048
-194.246	-49.562	-0.200	0.093
-193.231	206.209	0.119	0.182
-192.217	-200.000	0.013	0.061
-191.202	-46.373	-0.237	0.114
-190.187	-113.764	-0.213	0.041
-189.173	-33.378	0.125	-0.068
-188.158	-32.370	0.279	0.153
-187.144	-200.000	-0.022	-0.129
-186.129	-186.412	-0.015	0.000
-185.114	-200.000	-0.004	-0.105
-184.100	-26.282	-0.175	0.101
-183.085	510.232	-0.037	0.085
-182.071	800.000	0.122	-0.352
-181.056	8.937	-0.086	0.064
-180.042	-167.752	-0.273	0.011
-179.027	-6.732	0.207	-0.138
-178.012	19.215	-0.134	-0.106
-176.998	201.057	0.089	0.134
-175.983	298.494	-0.181	-0.326
-174.969	-40.513	-0.091	-0.046
-173.954	-200.000	0.035	-0.177
-172.939	-200.000	-0.003	0.098
-171.925	-162.160	0.286	-0.014
-170.910	78.395	0.241	-0.252
-169.896	-17.050	-0.088	0.054
-168.881	800.000	0.075	0.254
-167.866	-124.386	0.219	0.033
-166.852	800.000	0.035	-0.133
-165.837	800.000	-0.074	-0.279
-164.823	-177.332	0.121	0.003
-163.808	-200.000	0.065	-0.324
-162.793	-164.101	-0.238	0.011
-161.779	-200.000	0.033	0.650
-160.764	-79.406	0.037	-0.012
-159.750	116.936	0.233	-0.280
-158.735	595.812	-0.020	-0.049
-157.720	-0.779	-0.273	0.190
-156.706	450.953	0.086	0.185
-155.691	-95.960	0.687	0.179
-154.677	33.217	0.344	-0.292
-153.662	-200.000	0.035	-0.305
-152.647	-75.406	-0.144	0.050
-151.633	-200.000	-0.019	0.204
-150.618	-24.531	-0.298	0.174
-149.604	-200.000	0.013	-0.163
-148.589	-200.000	-0.002	0.049
-147.574	800.000	-0.071	0.207
-146.560	580.475	0.104	0.251
-145.545	276.232	-0.086	0.150
-144.531	-98.550	-0.314	0.079
-143.516	-60.016	-0.140	-0.059
-142.502	-200.000	-0.022	-0.173
-141.487	-200.000	0.017	-0.280
-140.472	34.488	0.117	-0.100
-139.458	45.454	-0.180	-0.162
-138.443	-200.000	0.005	0.042
-137.429	139.645	-0.128	0.165
-136.414	-150.297	0.093	-0.007
-135.399	93.394	-0.222	-0.246
-134.385	50.831	0.110	-0.103
-133.370	800.000	0.018	0.076
-132.356	-200.000	0.035	-0.400
-131.341	-54.145	-0.292	0.130
-130.326	524.933	0.055	0.127
-129.312	-58.980	0.218	-0.092
-128.297	420.033	-0.131	0.274
-127.283	800.000	0.088	0.239
-126.268	-36.457	-0.219	0.116
-125.253	-65.552	-0.113	-0.044
-124.239	-20.826	-0.136	0.082
-123.224	-58.863	0.162	0.069
-122.210	-116.626	0.260	-0.047
-121.195	800.000	0.025	-0.087
