DTS Sentinel unit serial number:	SN413079Multiplexer serial number:	ORYXHardware model number:	OX4-SRSoftware version number:	ORYX F/W v4.00 Oryx Data Collector v3.7.2.0data status	okinstallation	princeton_trtdifferential loss correction	single-endedforward channel	channel 1reverse channel	N/Adate	2019/09/17time	21:14:35forward acquisition time	60.00reverse acquisition time	0.00gamma	496.2192k internal	0.2337k external	0.2337temperature offset calibration	0.9976default loss term (dB/km)	0.3790temperature slope calibration	1.0000multiplexer offset coefficient	1.0000multiplexer slope coefficient	1.0000fibre end	0.00T internal ref (°C)	27.89T ext. ref 1 (°C)	0.19T ext. ref 2 (°C)	19.65length (m)	temperature (°C)	Stokes	anti-Stokes-747.200	69.905	0.149	0.154
-746.185	-200.000	0.054	0.400
-745.171	-104.247	-0.148	0.035
-744.156	800.000	0.047	0.172
-743.142	-200.000	-0.012	-0.055
-742.127	-63.588	-0.265	-0.109
-741.112	-29.048	0.299	-0.172
-740.098	-41.207	-0.315	0.163
-739.083	138.008	-0.125	0.165
-738.069	1.469	0.221	0.159
-737.054	-79.141	-0.129	0.044
-736.039	782.417	-0.094	0.259
-735.025	273.204	-0.102	0.182
-734.010	556.549	-0.023	-0.055
-732.996	65.637	0.260	-0.265
-731.981	-97.803	0.196	0.051
-730.966	-200.000	-0.026	-0.280
-729.952	-104.521	-0.347	-0.080
-728.937	3.789	-0.187	0.137
-727.923	800.000	0.026	0.103
-726.908	-13.740	-0.238	-0.154
-725.894	-200.000	-0.041	-0.278
-724.879	74.749	-0.320	0.338
-723.864	349.149	-0.165	0.327
-722.850	800.000	0.058	-0.173
-721.835	520.372	-0.111	0.262
-720.821	-141.427	-0.532	-0.054
-719.806	269.394	0.138	-0.244
-718.791	-145.468	0.229	0.021
-717.777	78.381	-0.041	-0.044
-716.762	10.551	-0.251	0.192
-715.748	-49.870	0.136	0.065
-714.733	-120.446	-0.211	0.036
-713.718	-189.165	-0.136	0.002
-712.704	132.091	-0.268	0.346
-711.689	-177.263	0.209	0.005
-710.675	-1.159	-0.123	-0.087
-709.660	-200.000	-0.023	0.108
-708.645	281.502	-0.037	0.066
-707.631	-41.908	-0.171	-0.088
-706.616	-56.654	-0.243	0.108
-705.602	-170.059	0.275	-0.010
-704.587	-54.839	0.472	0.213
-703.572	173.896	-0.194	0.281
-702.558	-24.287	-0.209	0.125
-701.543	18.335	-0.039	-0.031
-700.529	211.062	0.107	-0.168
-699.514	332.913	-0.061	0.118
-698.499	-200.000	-0.023	0.182
-697.485	76.978	0.068	-0.073
-696.470	48.253	0.103	0.097
-695.456	-37.494	-0.475	0.254
-694.441	800.000	0.066	-0.242
-693.426	-103.407	-0.225	0.053
-692.412	414.858	0.124	0.265
-691.397	-70.180	-0.154	0.058
-690.383	48.109	-0.267	-0.250
-689.368	-200.000	0.035	-0.283
-688.354	-53.452	0.133	-0.061
-687.339	26.863	-0.214	0.180
-686.324	-74.290	0.148	0.054
-685.310	484.272	-0.210	0.478
-684.295	153.443	0.062	-0.085
-683.281	-83.704	-0.053	0.017
-682.266	-118.390	0.178	0.032
-681.251	-159.287	-0.457	-0.026
-680.237	-62.144	0.175	-0.073
-679.222	286.691	-0.022	-0.039
-678.208	800.000	-0.029	-0.085
-677.193	800.000	-0.048	0.208
-676.178	-121.254	0.276	-0.046
-675.164	-180.904	-0.404	-0.008
-674.149	58.817	-0.109	0.107
-673.135	89.335	-0.148	-0.165
-672.120	23.521	0.250	-0.206
-671.105	-200.000	0.020	-0.446
-670.091	-56.364	0.149	0.066
-669.076	-59.286	-0.298	-0.128
-668.062	-152.304	-0.452	-0.033
-667.047	70.037	-0.065	0.067
-666.032	-26.067	-0.073	-0.043
-665.018	-139.125	0.357	-0.039
-664.003	638.229	-0.036	-0.092
-662.989	188.502	-0.237	-0.355
-661.974	40.192	0.076	-0.068
-660.959	800.000	0.052	0.169
-659.945	-200.000	0.078	0.404
-658.930	562.146	-0.143	0.347
-657.916	-95.615	-0.259	0.069
-656.901	37.942	-0.054	-0.048
-655.886	-200.000	0.004	-0.061
-654.872	-200.000	0.023	0.182
-653.857	313.689	-0.080	-0.150
-652.843	214.032	0.112	0.178
-651.828	110.765	0.104	-0.125
-650.814	-120.646	0.450	-0.076
-649.799	-169.157	-0.288	-0.011
-648.784	-136.078	-0.391	-0.046
-647.770	-58.283	0.241	0.105
-646.755	19.826	0.086	-0.069
-645.741	-98.588	-0.224	-0.057
-644.726	215.634	0.113	-0.180
-643.711	262.610	0.107	-0.186
-642.697	-90.544	0.026	0.007
-641.682	318.242	0.144	-0.273
-640.668	59.766	0.107	-0.106
-639.653	5.110	0.289	-0.212
-638.638	83.430	-0.197	-0.215
-637.624	27.197	-0.187	-0.157
-636.609	211.108	0.073	0.115
-635.595	55.078	0.189	0.182
-634.580	-20.038	-0.125	0.077
-633.565	172.772	0.088	-0.127
-632.551	-137.894	0.238	0.027
-631.536	4.081	0.248	-0.181
-630.522	-200.000	0.004	-0.101
-629.507	-92.535	-0.225	-0.063
-628.492	-200.000	0.000	0.134
-627.478	527.948	0.036	-0.084
-626.463	-75.729	0.241	-0.086
-625.449	800.000	0.054	0.198
-624.434	52.970	0.154	-0.147
-623.419	-200.000	0.021	-0.275
-622.405	-10.383	-0.243	-0.161
-621.390	-200.000	0.036	0.201
-620.376	-200.000	0.033	-0.303
-619.361	126.216	-0.124	-0.157
-618.346	192.985	0.096	-0.145
-617.332	-200.000	0.003	-0.028
-616.317	31.017	0.189	0.162
-615.303	129.835	-0.134	-0.171
-614.288	0.203	0.037	-0.026
-613.273	257.427	0.151	-0.259
-612.259	-87.612	-0.237	-0.071
-611.244	-35.620	-0.232	-0.125
-610.230	-200.000	0.017	-0.125
-609.215	800.000	-0.031	-0.108
-608.201	-62.228	0.232	0.097
-607.186	-64.899	0.329	0.133
-606.171	317.585	-0.174	-0.328
-605.157	800.000	-0.073	-0.223
-604.142	24.419	-0.108	0.089
-603.128	-48.913	0.316	0.151
-602.113	-200.000	0.030	-0.181
-601.098	3.930	0.292	-0.213
-600.084	-200.000	-0.014	-0.128
-599.069	-200.000	0.069	-0.361
-598.055	734.094	-0.166	-0.443
-597.040	77.281	-0.228	-0.242
-596.025	800.000	-0.042	0.177
-595.011	-200.000	0.023	-0.211
-593.996	-29.310	0.131	0.075
-592.982	-142.792	-0.235	-0.023
-591.967	178.056	-0.118	-0.172
-590.952	229.144	0.082	0.133
-589.938	185.212	0.080	-0.119
-588.923	246.707	0.156	0.263
-587.909	-200.000	-0.032	0.302
-586.894	-200.000	-0.090	-0.000
-585.879	73.291	0.076	0.079
-584.865	-23.420	-0.103	0.061
-583.850	51.412	-0.058	-0.055
-582.836	-200.000	-0.031	-0.196
-581.821	-4.808	-0.306	0.210
-580.806	-200.000	0.005	0.025
-579.792	334.926	0.108	-0.209
-578.777	222.520	0.018	0.028
-577.763	-110.994	0.217	-0.045
-576.748	-17.418	-0.129	0.081
-575.733	-200.000	-0.003	-0.038
-574.719	-118.046	0.187	-0.033
-573.704	96.733	-0.159	0.182
-572.690	-155.193	-0.541	-0.035
-571.675	286.087	-0.020	0.036
-570.661	800.000	0.096	0.270
-569.646	-27.141	0.130	0.076
-568.631	-59.800	0.098	0.042
-567.617	131.340	0.088	-0.113
-566.602	800.000	0.039	0.117
-565.588	465.337	0.180	0.401
-564.573	164.857	-0.137	-0.192
-563.558	547.418	-0.040	0.095
-562.544	800.000	0.088	-0.261
-561.529	438.905	0.100	0.219
-560.515	106.055	-0.193	0.228
-559.500	-183.348	-0.163	-0.003
-558.485	159.250	0.094	0.131
-557.471	-200.000	-0.019	0.278
-556.456	-50.510	0.085	0.040
-555.442	-103.499	0.151	0.035
-554.427	238.200	0.100	-0.165
-553.412	-74.440	-0.335	-0.121
-552.398	-200.000	0.026	-0.167
-551.383	-159.769	-0.352	-0.019
-550.369	-200.000	0.025	-0.300
-549.354	800.000	0.084	0.351
-548.339	63.699	0.180	-0.180
-547.325	168.472	-0.115	-0.163
-546.310	214.530	0.149	0.235
-545.296	-175.109	-0.312	-0.009
-544.281	800.000	-0.084	0.238
-543.266	-86.197	0.093	-0.029
-542.252	94.578	-0.164	-0.186
-541.237	-153.568	0.226	0.016
-540.223	204.510	-0.250	0.386
-539.208	-17.611	0.176	-0.110
-538.193	-113.210	-0.195	0.038
-537.179	270.981	-0.074	-0.131
-536.164	-147.805	-0.182	0.015
-535.150	-107.187	0.197	-0.043
-534.135	273.497	0.138	0.244
-533.121	737.813	-0.032	-0.085
-532.106	40.795	-0.071	-0.064
-531.091	228.445	-0.140	-0.227
-530.077	-38.815	0.157	-0.083
-529.062	-3.873	-0.348	-0.241
-528.048	-200.000	-0.024	0.188
-527.033	10.071	0.064	0.049
-526.018	-200.000	-0.064	0.380
-525.004	-37.520	-0.167	-0.089
-523.989	84.109	-0.094	-0.102
-522.975	-112.313	0.348	-0.069
-521.960	-116.785	0.268	0.049
-520.945	101.829	0.181	0.210
-519.931	104.099	0.179	-0.209
-518.916	-200.000	0.005	-0.089
-517.902	-105.754	0.117	-0.026
-516.887	132.035	0.025	0.032
-515.872	109.679	-0.058	-0.069
-514.858	-66.923	-0.174	-0.068
-513.843	645.456	-0.071	-0.181
-512.829	27.751	0.128	0.107
-511.814	-147.327	-0.434	-0.037
-510.799	-91.632	0.219	0.062
-509.785	-15.848	-0.284	0.180
-508.770	77.818	-0.063	-0.067
-507.756	78.243	0.083	0.088
-506.741	800.000	0.102	-0.407
-505.726	-99.586	0.077	0.019
-504.712	-200.000	-0.015	0.292
-503.697	-200.000	0.013	-0.207
-502.683	-173.114	0.111	0.003
-501.668	-200.000	-0.009	-0.094
-500.653	-51.600	0.416	0.193
-499.639	282.638	-0.061	-0.109
-498.624	0.703	-0.213	-0.151
-497.610	-94.780	-0.106	0.029
-496.595	800.000	-0.066	-0.240
-495.581	165.009	-0.087	0.122
-494.566	66.529	-0.091	-0.092
-493.551	-124.986	-0.223	-0.034
-492.537	498.298	0.040	-0.092
-491.522	-200.000	-0.053	-0.300
-490.508	-112.978	-0.455	-0.089
-489.493	-60.188	-0.369	0.156
-488.478	800.000	-0.071	0.254
-487.464	45.289	-0.017	0.016
-486.449	369.465	0.073	0.147
-485.435	117.242	0.084	-0.103
-484.420	-36.186	0.160	0.086
-483.405	147.729	-0.150	0.201
-482.391	-105.925	-0.278	0.062
-481.376	-119.020	-0.178	0.031
-480.362	-43.366	-0.210	-0.106
-479.347	-116.613	-0.253	-0.046
-478.332	-102.092	-0.264	0.063
-477.318	167.903	0.074	-0.105
-476.303	45.766	0.159	-0.146
-475.289	-200.000	-0.061	-0.366
-474.274	-138.524	-0.267	-0.029
-473.259	-81.757	0.189	-0.061
-472.245	38.069	0.049	-0.043
-471.230	64.336	-0.117	0.117
-470.216	-101.080	0.016	0.004
-469.201	-20.320	-0.107	-0.065
-468.186	-165.124	-0.108	-0.005
-467.172	178.670	-0.223	-0.324
-466.157	-200.000	0.082	0.545
-465.143	292.870	-0.189	-0.342
-464.128	103.866	0.164	-0.192
-463.113	570.085	-0.015	-0.035
-462.099	800.000	-0.058	-0.232
-461.084	-178.749	-0.092	0.002
-460.070	-53.942	0.087	0.039
-459.055	-200.000	-0.036	0.170
-458.040	286.100	-0.157	0.282
-457.026	800.000	-0.017	0.070
-456.011	-131.926	0.268	0.035
-454.997	51.332	-0.247	-0.233
-453.982	-151.923	0.266	-0.019
-452.968	-141.727	-0.121	-0.012
-451.953	271.517	0.118	0.206
-450.938	-72.355	-0.088	-0.032
-449.924	800.000	-0.141	0.438
-448.909	95.835	-0.227	0.257
-447.895	-200.000	0.018	0.216
-446.880	102.816	0.115	0.134
-445.865	382.676	-0.192	-0.392
-444.851	359.656	-0.141	0.279
-443.836	-40.273	0.035	-0.018
-442.822	-18.328	-0.226	0.140
-441.807	-159.677	-0.025	-0.001
-440.792	90.263	0.207	0.229
-439.778	311.460	-0.073	0.136
-438.763	-83.817	0.162	0.051
-437.749	-25.046	-0.227	-0.133
-436.734	498.295	0.124	-0.284
-435.719	-53.739	0.224	-0.101
-434.705	-62.392	0.177	0.073
-433.690	114.709	0.138	-0.167
-432.676	634.705	0.035	0.089
-431.661	-127.296	-0.275	-0.040
-430.646	-126.208	-0.284	0.042
-429.632	206.906	0.082	-0.127
-428.617	249.709	-0.082	-0.139
-427.603	696.761	0.113	-0.294
-426.588	373.557	0.039	-0.078
-425.573	800.000	-0.015	-0.062
-424.559	78.365	-0.165	0.174
-423.544	-172.203	0.172	0.005
-422.530	-74.047	0.066	-0.024
-421.515	22.130	-0.028	-0.022
-420.500	-200.000	-0.014	0.259
-419.486	99.765	0.129	0.148
-418.471	-200.000	0.038	0.306
-417.457	-82.065	0.174	-0.056
-416.442	-111.208	-0.323	0.065
-415.428	-35.027	-0.067	-0.036
-414.413	-200.000	0.017	-0.352
-413.398	-130.146	-0.022	0.003
-412.384	236.249	-0.048	-0.079
-411.369	299.042	0.044	0.080
-410.355	800.000	-0.034	0.097
-409.340	-32.870	0.253	0.139
-408.325	206.798	-0.017	-0.026
-407.311	-115.524	0.065	0.012
-406.296	-200.000	0.015	0.221
-405.282	-2.441	-0.234	-0.162
-404.267	100.087	-0.302	0.347
-403.252	297.003	-0.067	0.122
-402.238	3.985	0.215	-0.156
-401.223	561.296	-0.085	0.204
-400.209	800.000	-0.110	-0.333
-399.194	142.471	0.220	-0.290
-398.179	-149.784	0.319	0.025
-397.165	800.000	-0.106	-0.335
-396.150	57.864	0.189	0.183
-395.136	78.330	0.239	0.252
-394.121	-42.515	-0.164	-0.083
-393.106	9.085	0.137	0.102
-392.092	-191.634	-0.015	-0.000
-391.077	-59.177	-0.281	0.120
-390.063	285.718	0.044	0.079
-389.048	241.898	-0.081	0.135
-388.033	-8.484	0.021	-0.014
-387.019	800.000	-0.111	-0.417
-386.004	-200.000	-0.024	0.173
-384.990	-123.965	0.256	-0.040
-383.975	800.000	-0.065	-0.214
-382.960	800.000	0.097	-0.397
-381.946	113.366	-0.137	-0.164
-380.931	259.693	-0.092	-0.158
-379.917	-200.000	0.072	0.352
-378.902	703.386	-0.018	-0.046
-377.888	34.414	-0.220	0.190
-376.873	39.715	0.112	-0.099
-375.858	13.708	-0.142	-0.109
-374.844	-195.923	0.273	0.002
-373.829	-128.579	0.279	0.039
-372.815	261.851	-0.069	0.119
-371.800	-200.000	-0.025	0.154
-370.785	317.411	-0.116	0.218
-369.771	-153.786	0.125	-0.008
-368.756	214.508	-0.164	-0.257
-367.742	65.692	-0.224	-0.225
-366.727	258.368	-0.023	0.039
-365.712	245.874	-0.053	0.088
-364.698	-16.927	-0.198	0.124
-363.683	-200.000	-0.031	0.271
-362.669	-54.779	0.211	-0.094
-361.654	-200.000	0.025	-0.190
-360.639	-200.000	-0.049	-0.316
-359.625	155.620	0.081	-0.110
-358.610	6.331	-0.344	-0.253
-357.596	153.954	0.120	0.163
-356.581	107.637	-0.147	-0.173
-355.566	536.457	-0.093	-0.217
-354.552	359.710	-0.054	0.106
-353.537	-168.608	0.138	0.005
-352.523	763.091	0.066	0.176
-351.508	121.772	-0.361	-0.445
-350.493	-28.910	0.199	0.113
-349.479	109.311	0.167	0.198
-348.464	-44.016	0.264	0.131
-347.450	723.047	0.050	-0.133
-346.435	-78.434	-0.344	0.116
-345.420	-77.964	0.257	0.088
-344.406	-68.213	-0.138	-0.053
-343.391	235.457	0.141	0.230
-342.377	188.032	0.134	-0.198
-341.362	93.601	0.098	0.110
-340.348	-125.135	0.391	0.059
-339.333	162.407	0.134	0.185
-338.318	-200.000	0.019	0.095
-337.304	800.000	0.033	-0.119
-336.289	-21.148	-0.270	-0.163
-335.275	186.025	0.108	0.159
-334.260	-21.381	-0.182	0.110
-333.245	800.000	0.120	0.372
-332.231	0.239	-0.271	0.191
-331.216	-200.000	-0.018	0.147
-330.202	-153.157	0.129	0.009
-329.187	52.779	-0.154	0.145
-328.172	-26.892	0.288	0.166
-327.158	800.000	-0.028	-0.107
-326.143	-79.284	0.172	-0.058
-325.129	-190.722	0.396	-0.004
-324.114	800.000	-0.076	-0.238
-323.099	-4.656	0.097	0.066
-322.085	2.928	0.127	-0.091
-321.070	-130.373	0.126	0.017
-320.056	-82.163	0.190	0.061
-319.041	-200.000	-0.004	-0.142
-318.026	-3.439	0.244	-0.168
-317.012	-116.844	0.261	-0.047
-315.997	-137.305	0.342	0.038
-314.983	-119.153	-0.185	0.032
-313.968	129.297	-0.190	-0.240
-312.953	124.100	-0.090	0.112
-311.939	198.115	-0.167	0.252
-310.924	-36.687	0.304	0.161
-309.910	-200.000	-0.058	0.294
-308.895	-41.467	-0.294	-0.149
-307.880	-52.198	-0.113	-0.052
-306.866	14.136	-0.160	-0.123
-305.851	800.000	-0.075	-0.249
-304.837	347.858	-0.084	0.164
-303.822	800.000	0.064	-0.202
-302.807	-35.653	0.219	0.117
-301.793	105.200	-0.024	-0.028
-300.778	-11.593	-0.031	0.020
-299.764	-171.397	-0.112	0.004
-298.749	190.170	-0.140	-0.207
-297.735	-200.000	-0.001	-0.247
-296.720	-53.163	-0.243	-0.110
-295.705	432.202	0.095	-0.203
-294.691	-78.596	-0.115	0.039
-293.676	800.000	-0.039	0.133
-292.662	-200.000	0.041	-0.275
-291.647	610.312	-0.019	-0.047
-290.632	131.119	0.064	0.082
-289.618	632.047	-0.149	0.373
-288.603	-70.526	0.454	0.170
-287.589	-77.638	0.154	0.053
-286.574	-182.138	0.257	-0.005
-285.559	-137.199	0.427	0.048
-284.545	-118.871	-0.159	0.027
-283.530	-200.000	-0.007	-0.150
-282.516	693.927	-0.143	-0.369
-281.501	104.809	0.030	-0.035
-280.486	-200.000	-0.001	0.059
-279.472	800.000	0.036	-0.151
-278.457	-200.000	-0.074	0.329
-277.443	50.667	-0.267	0.249
-276.428	172.199	0.030	0.043
-275.413	123.624	-0.188	0.232
-274.399	800.000	-0.042	-0.140
-273.384	-200.000	0.016	0.188
-272.370	-64.293	0.300	-0.121
-271.355	154.920	0.028	-0.038
-270.340	190.832	0.139	-0.206
-269.326	102.737	0.089	0.103
-268.311	-200.000	0.000	0.127
-267.297	188.401	-0.016	0.023
-266.282	-62.706	-0.293	-0.120
-265.267	-81.261	-0.387	0.126
-264.253	-10.244	0.288	-0.189
-263.238	-87.421	0.437	-0.131
-262.224	156.547	0.075	0.102
-261.209	-140.112	-0.298	0.031
-260.195	286.248	0.171	0.304
-259.180	228.912	0.140	0.224
-258.165	158.745	0.141	0.192
-257.151	-200.000	0.015	0.248
-256.136	-200.000	0.033	0.154
-255.122	-96.957	-0.169	0.044
-254.107	-141.158	0.162	-0.016
-253.092	9.601	0.138	-0.103
-252.078	289.952	0.126	-0.226
-251.063	702.782	0.050	0.130
-250.049	-78.084	0.120	-0.041
-249.034	30.417	0.097	-0.082
-248.019	410.347	0.089	-0.186
-247.005	466.164	0.206	0.455
-245.990	-36.835	0.117	0.062
-244.976	186.809	0.089	0.130
-243.961	605.781	-0.210	0.515
-242.946	-67.314	0.324	0.125
-241.932	800.000	-0.067	0.240
-240.917	98.740	0.135	-0.153
-239.903	-51.770	0.215	-0.099
-238.888	-44.958	-0.419	-0.205
-237.873	118.422	0.179	-0.218
-236.859	-162.652	-0.135	0.007
-235.844	-79.526	-0.151	0.050
-234.830	85.196	-0.236	0.254
-233.815	-200.000	-0.001	-0.156
-232.800	-118.729	0.037	0.006
-231.786	-1.959	0.267	0.184
-230.771	800.000	0.073	0.272
-229.757	6.972	0.331	-0.243
-228.742	411.437	0.141	0.294
-227.727	447.923	0.043	-0.094
-226.713	-200.000	0.049	0.296
-225.698	-200.000	-0.043	-0.290
-224.684	2.528	0.170	-0.121
-223.669	228.982	-0.142	0.228
-222.655	545.725	0.041	0.097
-221.640	-91.234	-0.109	0.031
-220.625	-3.981	-0.072	-0.049
-219.611	58.758	0.019	-0.018
-218.596	-68.281	-0.191	0.073
-217.582	-200.000	0.001	0.169
-216.567	800.000	0.055	-0.207
-215.552	114.456	-0.111	0.133
-214.538	-104.162	-0.244	0.056
-213.523	385.609	0.132	0.268
-212.509	-74.657	-0.130	0.046
-211.494	219.787	-0.117	-0.184
-210.479	-135.676	-0.064	-0.007
-209.465	-18.632	-0.246	0.151
-208.450	106.917	0.060	0.070
-207.436	226.590	0.039	0.062
-206.421	327.927	0.077	0.146
-205.406	288.185	0.242	0.431
-204.392	-112.804	-0.228	0.044
-203.377	-107.856	0.358	0.077
-202.363	-16.564	0.256	0.159
-201.348	-50.995	-0.174	0.080
-200.333	-9.899	-0.147	0.096
-199.319	288.746	0.131	0.233
-198.304	-87.758	-0.277	0.082
-197.290	-200.000	-0.028	0.125
-196.275	800.000	0.051	-0.197
-195.260	-124.659	-0.346	0.053
-194.246	-200.000	-0.025	0.205
-193.231	-200.000	0.016	-0.127
-192.217	194.072	0.253	-0.376
-191.202	800.000	0.040	-0.154
-190.187	25.351	-0.107	0.088
-189.173	-89.019	0.448	-0.130
-188.158	168.953	-0.068	0.095
-187.144	-69.213	0.075	0.029
-186.129	-89.455	-0.273	-0.079
-185.114	74.890	-0.058	-0.060
-184.100	283.900	-0.064	0.113
-183.085	120.690	-0.088	0.108
-182.071	-200.000	-0.024	-0.213
-181.056	-49.219	-0.432	0.203
-180.042	234.291	0.210	-0.341
-179.027	-167.810	0.176	-0.007
-178.012	-137.912	0.057	-0.006
-176.998	277.099	0.085	-0.149
-175.983	66.613	0.067	0.067
-174.969	-114.297	0.095	0.018
-173.954	-185.264	-0.273	0.004
-172.939	-27.890	-0.434	-0.247
-171.925	133.477	0.100	-0.127
-170.910	-200.000	-0.018	-0.312
-169.896	-125.221	-0.224	0.034
-168.881	800.000	-0.031	-0.112
-167.866	-7.334	0.145	-0.096
-166.852	478.140	-0.104	-0.231
-165.837	28.263	0.211	0.175
-164.823	800.000	0.069	0.260
-163.808	348.505	0.143	0.278
-162.793	-200.000	-0.003	0.043
-161.779	372.485	0.074	0.148
-160.764	5.218	0.087	-0.063
-159.750	152.501	-0.102	0.137
-158.735	234.696	-0.194	0.314
-157.720	159.252	0.076	0.103
-156.706	-200.000	0.307	-0.000
-155.691	21.986	-0.176	0.141
-154.677	-200.000	0.018	-0.111
-153.662	-200.000	-0.028	-0.193
-152.647	-71.400	0.327	0.120
-151.633	293.493	0.082	-0.147
-150.618	-54.799	0.224	-0.099
-149.604	270.738	-0.208	-0.359
-148.589	-177.622	0.262	-0.006
-147.574	-200.000	0.010	0.154
-146.560	25.745	0.049	-0.040
-145.545	95.265	-0.156	-0.175
-144.531	-78.862	0.160	0.053
-143.516	117.143	0.031	-0.037
-142.502	-74.716	-0.415	0.146
-141.487	643.945	0.084	0.210
-140.472	-200.000	-0.007	-0.082
-139.458	169.132	0.070	-0.098
-138.443	-94.412	-0.283	-0.076
-137.429	-200.000	0.053	0.413
-136.414	-200.000	0.048	0.394
-135.399	-193.955	0.472	0.004
-134.385	-96.102	0.233	0.061
-133.370	-125.923	-0.204	0.030
-132.356	800.000	0.077	-0.263
-131.341	800.000	0.122	0.359
-130.326	16.102	0.261	0.202
-129.312	352.604	0.060	-0.117
-128.297	-139.630	0.013	-0.001
-127.283	-69.965	-0.345	-0.129
-126.268	-157.778	-0.181	0.011
-125.253	-114.624	0.244	-0.046
-124.239	-22.336	0.061	-0.036
-123.224	238.289	-0.177	-0.288
-122.210	97.505	0.218	-0.246
-121.195	-200.000	-0.029	0.158
