DTS Sentinel unit serial number:	SN413079Multiplexer serial number:	ORYXHardware model number:	OX4-SRSoftware version number:	ORYX F/W v4.00 Oryx Data Collector v3.7.2.0data status	okinstallation	princeton_trtdifferential loss correction	single-endedforward channel	channel 1reverse channel	N/Adate	2019/09/18time	03:38:35forward acquisition time	60.00reverse acquisition time	0.00gamma	496.2192k internal	0.2340k external	0.2340temperature offset calibration	0.9976default loss term (dB/km)	0.3790temperature slope calibration	1.0000multiplexer offset coefficient	1.0000multiplexer slope coefficient	1.0000fibre end	0.00T internal ref (°C)	22.87T ext. ref 1 (°C)	0.17T ext. ref 2 (°C)	17.93length (m)	temperature (°C)	Stokes	anti-Stokes-747.200	-71.224	-0.182	0.068
-746.185	323.412	-0.301	0.576
-745.171	243.888	0.028	-0.047
-744.156	800.000	-0.161	0.506
-743.142	298.553	0.074	-0.136
-742.127	61.953	0.079	0.079
-741.112	375.062	0.098	0.200
-740.098	122.626	-0.354	0.443
-739.083	-132.918	0.118	0.015
-738.069	-62.872	-0.252	0.105
-737.054	-75.166	-0.120	-0.043
-736.039	104.928	-0.288	-0.340
-735.025	127.900	0.125	0.159
-734.010	-171.227	-0.398	-0.013
-732.996	5.535	-0.125	0.092
-731.981	-31.797	0.153	-0.086
-730.966	-129.439	-0.132	-0.018
-729.952	563.592	-0.158	-0.383
-728.937	78.775	-0.284	0.305
-727.923	-82.787	0.250	-0.081
-726.908	-138.923	-0.234	-0.025
-725.894	-191.735	-0.051	-0.001
-724.879	-151.476	0.067	-0.005
-723.864	329.398	-0.123	0.238
-722.850	-97.503	-0.211	0.055
-721.835	119.926	-0.143	0.178
-720.821	-200.000	-0.042	0.188
-719.806	178.643	-0.137	-0.201
-718.791	63.284	-0.101	-0.101
-717.777	-67.819	-0.105	0.041
-716.762	-51.016	-0.105	-0.050
-715.748	170.708	0.171	0.246
-714.733	285.265	0.092	0.167
-713.718	195.466	-0.275	0.419
-712.704	-26.756	-0.265	0.155
-711.689	57.604	0.253	0.248
-710.675	-138.472	-0.273	-0.030
-709.660	800.000	0.062	-0.201
-708.645	800.000	-0.053	-0.185
-707.631	-88.085	0.304	-0.091
-706.616	-21.898	-0.116	0.071
-705.602	-200.000	-0.038	0.459
-704.587	530.004	0.059	-0.138
-703.572	209.698	-0.221	0.347
-702.558	70.072	0.302	0.312
-701.543	-163.535	-0.136	0.006
-700.529	258.276	-0.138	-0.238
-699.514	-200.000	0.004	-0.076
-698.499	70.930	0.051	-0.053
-697.485	154.260	-0.047	-0.064
-696.470	56.721	-0.107	0.104
-695.456	-144.229	-0.347	-0.032
-694.441	247.137	0.101	0.170
-693.426	-200.000	-0.067	0.390
-692.412	167.834	-0.199	-0.283
-691.397	33.855	0.143	-0.125
-690.383	-3.755	-0.155	0.108
-689.368	800.000	-0.074	0.207
-688.354	-34.477	0.181	-0.099
-687.339	-15.733	-0.098	-0.063
-686.324	-9.079	0.258	-0.173
-685.310	255.900	-0.019	0.033
-684.295	100.682	-0.053	0.061
-683.281	-83.327	0.051	-0.016
-682.266	-79.949	0.075	0.025
-681.251	-107.401	-0.250	-0.055
-680.237	300.447	0.104	-0.191
-679.222	-60.388	-0.096	0.041
-678.208	211.554	-0.107	0.169
-677.193	-62.873	-0.141	-0.058
-676.178	-74.193	-0.258	0.093
-675.164	-118.906	-0.300	0.053
-674.149	253.879	-0.088	-0.150
-673.135	626.728	0.068	0.172
-672.120	181.843	0.196	0.289
-671.105	-200.000	0.052	-0.311
-670.091	-193.604	0.075	0.001
-669.076	-15.298	0.111	0.071
-668.062	-200.000	-0.039	-0.319
-667.047	364.126	0.047	-0.095
-666.032	583.963	-0.113	-0.278
-665.018	-200.000	-0.064	0.439
-664.003	800.000	-0.034	0.098
-662.989	800.000	-0.084	0.301
-661.974	244.736	-0.116	0.194
-660.959	-27.032	0.102	-0.059
-659.945	47.854	0.309	-0.289
-658.930	-81.492	-0.201	-0.066
-657.916	336.978	-0.105	0.203
-656.901	164.526	-0.147	-0.207
-655.886	800.000	-0.065	-0.279
-654.872	-170.062	-0.215	-0.008
-653.857	417.550	-0.111	-0.236
-652.843	-47.598	-0.280	0.136
-651.828	800.000	0.080	-0.258
-650.814	330.755	-0.132	-0.255
-649.799	-200.000	0.001	0.409
-648.784	-83.354	0.392	-0.126
-647.770	-83.887	-0.174	0.055
-646.755	-200.000	-0.024	-0.133
-645.741	-95.205	0.277	-0.074
-644.726	-157.775	-0.094	-0.006
-643.711	166.991	-0.082	0.116
-642.697	-122.811	0.099	0.016
-641.682	-200.000	-0.043	0.215
-640.668	-20.524	-0.077	0.047
-639.653	47.162	0.165	-0.153
-638.638	137.094	0.222	-0.290
-637.624	329.600	-0.183	-0.352
-636.609	-200.000	0.031	-0.203
-635.595	344.579	-0.069	-0.136
-634.580	-7.174	-0.181	0.122
-633.565	-87.746	0.284	0.086
-632.551	410.169	-0.079	0.168
-631.536	800.000	-0.023	0.096
-630.522	800.000	0.078	-0.246
-629.507	-99.846	-0.213	-0.053
-628.492	-173.159	-0.240	-0.007
-627.478	-35.099	0.302	-0.164
-626.463	-192.546	-0.215	-0.002
-625.449	-67.688	-0.189	0.074
-624.434	-200.000	0.007	0.194
-623.419	783.763	0.052	-0.142
-622.405	800.000	0.067	0.249
-621.390	201.246	-0.254	0.390
-620.376	-46.345	0.236	0.116
-619.361	-200.000	0.011	-0.118
-618.346	-48.033	-0.406	-0.196
-617.332	-175.380	0.279	0.008
-616.317	12.174	0.355	0.272
-615.303	76.194	-0.094	0.099
-614.288	-200.000	-0.005	-0.222
-613.273	73.937	0.076	-0.080
-612.259	800.000	-0.060	-0.209
-611.244	-88.055	-0.218	0.065
-610.230	-84.494	0.343	-0.108
-609.215	800.000	-0.096	0.355
-608.201	-59.159	-0.167	-0.072
-607.186	-13.271	-0.087	0.056
-606.171	-189.905	-0.166	0.002
-605.157	-89.975	-0.201	-0.058
-604.142	-88.428	0.101	-0.030
-603.128	-200.000	0.024	-0.321
-602.113	96.780	0.122	0.139
-601.098	800.000	-0.051	0.199
-600.084	-107.805	-0.185	-0.040
-599.069	-65.652	0.039	0.015
-598.055	-200.000	-0.010	-0.141
-597.040	-172.080	-0.188	-0.006
-596.025	-119.476	0.144	0.025
-595.011	-200.000	-0.013	-0.114
-593.996	-200.000	0.016	-0.102
-592.982	205.982	-0.101	-0.157
-591.967	-200.000	-0.025	0.146
-590.952	-48.002	-0.288	0.139
-589.938	124.047	0.212	-0.265
-588.923	15.516	0.223	-0.174
-587.909	-148.667	0.252	-0.020
-586.894	-200.000	-0.008	-0.207
-585.879	-200.000	0.028	-0.232
-584.865	243.886	0.121	0.203
-583.850	800.000	-0.099	-0.310
-582.836	-177.543	-0.381	0.009
-581.821	-98.731	0.244	-0.062
-580.806	800.000	0.033	-0.142
-579.792	-137.912	-0.330	0.037
-578.777	96.648	-0.133	-0.151
-577.763	-67.327	-0.233	0.091
-576.748	643.951	-0.083	0.210
-575.733	71.460	-0.217	0.225
-574.719	-85.192	-0.164	-0.051
-573.704	-8.397	-0.332	0.222
-572.690	-200.000	0.012	-0.371
-571.675	-200.000	0.051	0.326
-570.661	564.880	0.078	-0.188
-569.646	-72.251	0.356	0.131
-568.631	157.141	-0.146	-0.201
-567.617	479.196	-0.046	0.104
-566.602	-200.000	-0.015	-0.205
-565.588	-200.000	0.001	-0.403
-564.573	-200.000	0.049	0.463
-563.558	-41.901	0.234	0.119
-562.544	19.287	0.074	-0.059
-561.529	-119.963	0.200	-0.034
-560.515	120.030	0.114	-0.140
-559.500	-162.894	-0.124	-0.006
-558.485	800.000	0.052	0.205
-557.471	-200.000	0.026	0.240
-556.456	92.709	0.085	0.095
-555.442	-200.000	0.015	-0.445
-554.427	-138.125	-0.367	0.041
-553.412	800.000	-0.056	0.227
-552.398	15.922	0.067	0.052
-551.383	-200.000	-0.042	-0.205
-550.369	-48.311	-0.243	-0.117
-549.354	-140.955	-0.155	-0.016
-548.339	183.580	-0.110	0.162
-547.325	-103.395	0.422	0.099
-546.310	254.655	0.113	-0.193
-545.296	232.033	0.092	-0.150
-544.281	59.068	-0.260	-0.254
-543.266	-200.000	-0.024	-0.312
-542.252	-127.550	0.213	0.031
-541.237	128.267	0.121	0.153
-540.223	-187.188	0.051	-0.001
-539.208	-200.000	-0.038	-0.210
-538.193	-188.630	0.221	0.003
-537.179	-89.382	-0.088	0.026
-536.164	-200.000	-0.023	-0.164
-535.150	9.580	-0.319	-0.240
-534.135	-188.459	-0.171	0.002
-533.121	114.243	0.204	-0.247
-532.106	-58.702	0.383	-0.165
-531.091	-25.105	0.114	0.067
-530.077	116.754	0.288	-0.351
-529.062	-38.534	-0.117	-0.061
-528.048	78.812	0.319	0.339
-527.033	-32.764	-0.179	0.099
-526.018	88.604	-0.227	0.251
-525.004	-86.652	0.013	-0.004
-523.989	272.332	0.227	-0.399
-522.975	616.612	-0.161	-0.401
-521.960	800.000	0.018	0.066
-520.945	-58.143	0.222	-0.096
-519.931	-121.725	-0.213	0.035
-518.916	-33.579	0.389	0.213
-517.902	-85.575	0.248	-0.077
-516.887	197.662	0.092	-0.139
-515.872	5.730	-0.124	-0.091
-514.858	-25.831	0.116	-0.068
-513.843	276.257	0.162	0.285
-512.829	190.234	-0.151	0.225
-511.814	22.610	-0.304	-0.247
-510.799	499.346	0.152	0.348
-509.785	-13.378	0.140	0.090
-508.770	-32.160	-0.189	-0.105
-507.756	136.410	0.046	0.060
-506.741	-200.000	-0.001	0.028
-505.726	263.160	-0.018	-0.031
-504.712	390.997	0.057	0.117
-503.697	83.627	-0.264	0.286
-502.683	531.976	-0.064	-0.151
-501.668	122.547	0.070	0.087
-500.653	-200.000	0.001	-0.044
-499.639	-60.184	0.190	-0.081
-498.624	359.572	0.102	-0.203
-497.610	-100.930	-0.238	-0.058
-496.595	452.444	0.058	0.127
-495.581	60.061	-0.178	0.175
-494.566	-48.187	0.414	0.198
-493.551	-46.209	-0.144	0.070
-492.537	790.855	0.038	-0.104
-491.522	-139.357	0.124	0.013
-490.508	-19.501	0.050	-0.031
-489.493	644.545	0.060	0.153
-488.478	-200.000	0.020	-0.270
-487.464	-14.976	0.099	-0.063
-486.449	-78.717	-0.423	0.143
-485.435	269.783	0.101	0.176
-484.420	800.000	-0.132	0.372
-483.405	503.244	-0.067	-0.155
-482.391	97.017	-0.065	-0.074
-481.376	-200.000	-0.054	-0.236
-480.362	800.000	0.059	-0.176
-479.347	-41.554	-0.071	0.036
-478.332	-103.513	-0.340	0.079
-477.318	28.796	-0.247	0.208
-476.303	-4.431	0.058	0.040
-475.289	87.250	-0.223	-0.245
-474.274	-32.816	0.247	-0.136
-473.259	800.000	-0.055	-0.193
-472.245	544.163	0.036	0.084
-471.230	68.965	-0.170	-0.173
-470.216	-178.981	0.137	0.003
-469.201	33.130	0.059	-0.050
-468.186	24.438	0.125	0.103
-467.172	800.000	-0.063	0.237
-466.157	-177.273	-0.058	0.001
-465.143	415.667	-0.032	0.067
-464.128	139.989	0.131	-0.171
-463.113	-153.892	0.267	-0.018
-462.099	101.254	0.193	0.223
-461.084	-200.000	-0.079	0.387
-460.070	-2.657	0.185	-0.128
-459.055	-200.000	-0.040	0.187
-458.040	63.944	-0.156	-0.156
-457.026	-111.511	0.187	-0.038
-456.011	-48.536	-0.054	0.026
-454.997	-147.692	0.160	-0.013
-453.982	-75.521	-0.107	0.038
-452.968	644.449	0.060	-0.151
-451.953	445.193	-0.027	0.058
-450.938	-178.652	0.009	0.000
-449.924	800.000	-0.021	-0.060
-448.909	705.821	0.105	0.275
-447.895	800.000	0.097	-0.318
-446.880	-200.000	-0.022	0.152
-445.865	-5.724	-0.263	0.178
-444.851	590.435	-0.163	0.398
-443.836	61.919	-0.214	0.212
-442.822	485.430	-0.009	0.020
-441.807	-142.257	0.205	-0.020
-440.792	28.900	-0.083	0.070
-439.778	49.045	0.114	0.106
-438.763	24.545	-0.130	0.106
-437.749	-174.771	0.220	-0.006
-436.734	-9.452	0.302	-0.199
-435.719	227.639	-0.089	0.144
-434.705	-137.084	0.234	0.026
-433.690	-109.114	-0.189	-0.040
-432.676	-36.870	-0.146	0.078
-431.661	-100.585	-0.238	-0.058
-430.646	-164.852	-0.406	0.018
-429.632	611.733	-0.014	0.035
-428.617	439.455	0.078	-0.169
-427.603	-35.065	0.035	-0.019
-426.588	-36.185	0.459	0.245
-425.573	-16.622	0.461	-0.289
-424.559	45.253	-0.066	0.060
-423.544	19.129	0.295	0.235
-422.530	-200.000	-0.012	0.109
-421.515	-82.499	-0.136	0.044
-420.500	194.839	-0.219	-0.329
-419.486	61.358	-0.198	-0.195
-418.471	161.363	0.154	-0.214
-417.457	800.000	-0.042	0.122
-416.442	800.000	-0.042	0.178
-415.428	-58.332	0.222	0.096
-414.413	-87.625	-0.332	0.099
-413.398	-200.000	0.001	-0.128
-412.384	-200.000	-0.029	0.135
-411.369	79.749	-0.191	-0.203
-410.355	-200.000	-0.029	0.161
-409.340	-110.641	-0.122	0.025
-408.325	291.548	0.067	-0.120
-407.311	-152.308	-0.230	0.016
-406.296	-200.000	-0.005	-0.297
-405.282	-44.294	0.145	-0.072
-404.267	-200.000	-0.046	-0.208
-403.252	800.000	0.096	-0.298
-402.238	-170.661	0.071	0.002
-401.223	22.073	-0.114	0.092
-400.209	42.152	-0.096	0.086
-399.194	62.368	-0.242	0.239
-398.179	-161.359	0.387	0.020
-397.165	690.363	0.077	0.200
-396.150	581.566	-0.112	0.271
-395.136	-141.850	-0.116	0.012
-394.121	-200.000	-0.024	-0.240
-393.106	-29.437	-0.086	-0.049
-392.092	-200.000	-0.032	-0.276
-391.077	-200.000	0.013	-0.196
-390.063	10.379	-0.129	0.097
-389.048	-200.000	0.017	-0.113
-388.033	-200.000	-0.013	0.227
-387.019	475.674	0.116	0.258
-386.004	-200.000	0.002	-0.208
-384.990	7.746	0.115	0.085
-383.975	-200.000	-0.053	-0.252
-382.960	-188.816	-0.241	0.003
-381.946	-200.000	0.011	-0.114
-380.931	-200.000	-0.039	-0.523
-379.917	36.112	-0.092	0.080
-378.902	-200.000	0.035	-0.163
-377.888	-107.771	0.244	-0.053
-376.873	-106.914	-0.262	-0.057
-375.858	189.229	0.138	0.205
-374.844	153.146	0.136	-0.184
-373.829	800.000	0.121	0.372
-372.815	42.688	0.088	0.079
-371.800	14.673	-0.215	-0.166
-370.785	800.000	0.025	0.085
-369.771	255.215	-0.037	0.063
-368.756	-129.414	0.350	-0.048
-367.742	-27.288	-0.090	-0.052
-366.727	68.251	-0.297	-0.301
-365.712	-8.352	0.221	-0.147
-364.698	800.000	-0.083	-0.229
-363.683	-48.539	0.080	-0.038
-362.669	-200.000	-0.225	0.000
-361.654	-149.941	-0.135	0.010
-360.639	115.855	0.129	0.155
-359.625	-128.769	0.276	0.038
-358.610	-62.815	0.107	-0.044
-357.596	-200.000	0.009	-0.232
-356.581	800.000	-0.051	0.168
-355.566	-21.728	0.223	0.134
-354.552	-76.992	0.198	0.068
-353.537	-156.328	0.160	-0.010
-352.523	-53.319	-0.204	-0.092
-351.508	-200.000	0.017	-0.274
-350.493	35.974	0.157	0.136
-349.479	443.603	-0.039	0.085
-348.464	-200.000	0.006	0.345
-347.450	-80.677	0.198	-0.065
-346.435	-3.036	0.166	0.115
-345.420	234.401	0.180	-0.294
-344.406	-5.164	0.359	-0.243
-343.391	37.769	0.156	-0.136
-342.377	-200.000	-0.046	-0.200
-341.362	-72.977	0.311	-0.113
-340.348	373.076	-0.042	0.084
-339.333	198.625	-0.085	0.129
-338.318	217.175	0.049	0.077
-337.304	-14.545	-0.061	-0.039
-336.289	681.443	-0.111	0.285
-335.275	-13.150	-0.226	0.145
-334.260	-66.431	-0.239	-0.094
-333.245	497.585	-0.150	-0.341
-332.231	-200.000	0.008	-0.301
-331.216	169.238	-0.312	-0.440
-330.202	-115.544	0.090	-0.017
-329.187	372.117	0.078	-0.156
-328.172	415.396	0.134	-0.282
-327.158	-36.881	0.047	-0.025
-326.143	-11.166	0.151	0.098
-325.129	-63.451	-0.097	0.039
-324.114	551.127	-0.151	0.356
-323.099	-41.395	0.158	0.080
-322.085	-25.155	0.122	-0.071
-321.070	39.507	0.041	-0.036
-320.056	-132.986	-0.162	0.020
-319.041	-200.000	0.007	0.068
-318.026	800.000	0.055	0.151
-317.012	-200.000	-0.003	-0.139
-315.997	-200.000	-0.031	0.212
-314.983	2.724	-0.049	0.035
-313.968	-184.716	0.314	-0.005
-312.953	-124.492	-0.207	0.032
-311.939	65.169	-0.254	0.253
-310.924	102.253	0.064	-0.074
-309.910	-200.000	-0.035	0.202
-308.895	-99.220	-0.222	0.055
-307.880	217.078	0.187	0.294
-306.866	-85.645	0.377	-0.115
-305.851	15.645	0.186	0.144
-304.837	222.169	-0.146	0.231
-303.822	-86.613	0.095	0.029
-302.807	83.232	0.201	-0.216
-301.793	-28.748	0.328	-0.186
-300.778	22.655	-0.079	-0.064
-299.764	316.214	0.170	-0.317
-298.749	-101.769	-0.089	-0.021
-297.735	79.928	-0.045	0.047
-296.720	-38.630	0.089	-0.046
-295.705	-200.000	-0.063	-0.302
-294.691	477.918	-0.087	-0.195
-293.676	54.318	-0.188	-0.179
-292.662	20.023	-0.267	-0.212
-291.647	-195.571	0.466	0.003
-290.632	-200.000	-0.030	0.361
-289.618	148.178	-0.101	0.134
-288.603	-200.000	0.025	-0.144
-287.589	15.628	-0.245	0.189
-286.574	800.000	-0.038	-0.129
-285.559	-200.000	0.006	0.151
-284.545	516.012	0.093	0.213
-283.530	-119.675	-0.155	0.026
-282.516	182.291	0.016	-0.024
-281.501	53.188	0.230	0.217
-280.486	-200.000	-0.007	0.102
-279.472	800.000	-0.099	0.356
-278.457	-23.974	-0.202	-0.119
-277.443	-200.000	-0.069	-0.314
-276.428	-200.000	-0.029	0.275
-275.413	-102.724	-0.235	0.055
-274.399	723.522	-0.078	-0.205
-273.384	-92.448	0.212	-0.059
-272.370	1.553	-0.099	-0.070
-271.355	126.161	-0.060	-0.074
-270.340	-62.381	0.127	0.052
-269.326	38.346	-0.221	0.193
-268.311	-200.000	-0.029	-0.372
-267.297	-125.214	0.052	0.008
-266.282	-47.334	0.298	-0.143
-265.267	73.514	0.042	0.043
-264.253	278.257	0.132	0.231
-263.238	-81.898	-0.265	0.085
-262.224	-30.538	-0.154	-0.086
-261.209	-24.661	-0.245	0.144
-260.195	-65.297	-0.231	0.092
-259.180	-200.000	0.018	-0.113
-258.165	-200.000	0.002	0.168
-257.151	98.747	-0.268	0.304
-256.136	238.221	-0.146	0.238
-255.122	-70.251	-0.149	0.056
-254.107	-154.446	0.055	0.004
-253.092	-200.000	-0.031	0.182
-252.078	164.187	-0.123	0.170
-251.063	204.563	0.091	-0.139
-250.049	-86.022	0.158	0.048
-249.034	-101.389	-0.092	0.022
-248.019	-58.043	-0.307	-0.132
-247.005	-113.854	0.202	0.039
-245.990	-104.668	0.160	-0.036
-244.976	-15.867	0.091	0.057
-243.961	-199.205	-0.359	-0.002
-242.946	-200.000	-0.021	0.167
-241.932	-200.000	0.025	0.159
-240.917	164.044	0.120	-0.167
-239.903	-156.600	0.189	-0.012
-238.888	392.931	-0.039	0.080
-237.873	-70.420	0.240	-0.089
-236.859	-155.052	0.183	-0.012
-235.844	-72.371	0.321	-0.117
-234.830	-92.457	-0.243	0.067
-233.815	800.000	-0.133	0.413
-232.800	-200.000	0.002	-0.079
-231.786	56.554	0.181	0.173
-230.771	-165.000	0.202	-0.009
-229.757	-200.000	-0.017	-0.180
-228.742	318.609	0.105	0.196
-227.727	-44.691	0.091	-0.045
-226.713	299.060	-0.030	0.055
-225.698	248.319	0.130	-0.216
-224.684	25.223	0.246	-0.201
-223.669	56.969	-0.194	0.185
-222.655	157.977	0.162	-0.221
-221.640	127.828	-0.062	0.078
-220.625	12.606	0.248	-0.188
-219.611	559.456	0.188	0.445
-218.596	-142.244	-0.077	-0.007
-217.582	800.000	0.124	0.461
-216.567	-135.103	-0.217	0.026
-215.552	-200.000	-0.043	-0.289
-214.538	676.405	0.057	0.147
-213.523	-5.541	0.285	0.192
-212.509	232.476	-0.117	-0.189
-211.494	-200.000	0.036	-0.389
-210.479	9.334	-0.065	-0.049
-209.465	461.396	0.176	-0.385
-208.450	-62.766	-0.027	0.011
-207.436	615.096	0.084	-0.206
-206.421	-114.492	-0.183	0.035
-205.406	-200.000	-0.059	0.270
-204.392	94.487	0.080	-0.090
-203.377	-92.904	-0.114	0.031
-202.363	800.000	0.091	-0.264
-201.348	314.553	0.090	-0.166
-200.333	166.413	-0.194	0.270
-199.319	-9.128	0.141	-0.093
-198.304	-83.698	-0.489	0.153
-197.290	-200.000	-0.008	0.049
-196.275	-25.285	0.098	0.057
-195.260	145.754	0.125	0.164
-194.246	-68.401	-0.109	-0.041
-193.231	800.000	0.057	0.195
-192.217	62.200	-0.186	-0.182
-191.202	59.724	-0.184	0.179
-190.187	52.280	-0.068	-0.064
-189.173	-139.005	-0.222	0.024
-188.158	-200.000	-0.005	0.076
-187.144	308.158	-0.226	-0.414
-186.129	800.000	0.143	0.427
-185.114	517.313	0.063	0.145
-184.100	46.961	0.063	0.058
-183.085	-1.409	-0.187	0.130
-182.071	-21.657	0.175	0.105
-181.056	201.639	0.071	0.108
-180.042	385.953	0.140	0.283
-179.027	-74.045	0.325	-0.115
-178.012	56.376	0.144	0.137
-176.998	-13.474	-0.073	0.047
-175.983	800.000	0.132	-0.394
-174.969	281.655	-0.144	0.252
-173.954	-158.008	-0.261	-0.015
-172.939	-200.000	-0.034	0.263
-171.925	-99.504	-0.392	-0.097
-170.910	-200.000	0.002	0.327
-169.896	621.457	0.058	0.143
-168.881	96.241	0.115	-0.129
-167.866	800.000	-0.057	0.188
-166.852	611.773	-0.034	0.083
-165.837	-69.504	-0.237	0.089
-164.823	-200.000	-0.056	0.310
-163.808	-200.000	-0.022	0.225
-162.793	-193.858	0.150	0.001
-161.779	-200.000	0.106	-0.565
-160.764	186.424	0.178	0.259
-159.750	210.312	-0.226	0.347
-158.735	-44.979	0.125	0.061
-157.720	23.168	-0.199	-0.160
-156.706	227.089	0.133	-0.211
-155.691	-164.538	-0.322	-0.014
-154.677	352.160	-0.119	-0.231
-153.662	206.485	0.102	0.156
-152.647	382.153	-0.102	-0.204
-151.633	38.586	-0.066	0.058
-150.618	-77.086	-0.168	0.058
-149.604	-200.000	0.022	-0.098
-148.589	-144.524	-0.330	0.030
-147.574	-109.566	-0.117	-0.024
-146.560	-74.210	0.123	-0.044
-145.545	11.127	-0.159	0.119
-144.531	-114.324	-0.373	0.070
-143.516	-200.000	-0.007	-0.270
-142.502	114.371	0.249	0.297
-141.487	503.435	-0.103	0.232
-140.472	208.164	-0.125	-0.191
-139.458	35.683	-0.084	-0.073
-138.443	-121.210	0.150	-0.025
-137.429	-104.843	-0.039	0.009
-136.414	41.519	-0.219	0.194
-135.399	-59.638	-0.294	0.123
-134.385	125.086	0.225	0.278
-133.370	-200.000	-0.026	-0.134
-132.356	1.609	-0.193	0.136
-131.341	265.391	0.161	-0.274
-130.326	-104.962	0.137	0.031
-129.312	800.000	-0.063	0.255
-128.297	82.170	-0.087	-0.092
-127.283	558.399	0.185	0.438
-126.268	-147.338	0.221	0.018
-125.253	-65.416	-0.223	0.088
-124.239	-147.035	-0.123	0.010
-123.224	61.554	0.075	0.073
-122.210	147.251	0.106	0.139
