DTS Sentinel unit serial number:	SN413079Multiplexer serial number:	ORYXHardware model number:	OX4-SRSoftware version number:	ORYX F/W v4.00 Oryx Data Collector v3.7.2.0data status	okinstallation	princeton_trtdifferential loss correction	single-endedforward channel	channel 1reverse channel	N/Adate	2019/09/13time	07:22:35forward acquisition time	60.00reverse acquisition time	0.00gamma	496.2192k internal	0.2335k external	0.2335temperature offset calibration	1.0165default loss term (dB/km)	0.3790temperature slope calibration	1.0000multiplexer offset coefficient	1.0000multiplexer slope coefficient	1.0000fibre end	0.00T internal ref (°C)	26.12T ext. ref 1 (°C)	4.18T ext. ref 2 (°C)	21.67length (m)	temperature (°C)	Stokes	anti-Stokes-747.200	-10.676	-0.088	-0.058
-746.185	800.000	0.095	0.353
-745.171	-152.246	-0.226	-0.016
-744.156	-200.000	0.025	-0.131
-743.142	-40.304	-0.023	-0.012
-742.127	-168.374	-0.217	0.008
-741.112	455.139	-0.065	-0.145
-740.098	800.000	-0.053	0.189
-739.083	-140.509	-0.278	-0.029
-738.069	-88.025	-0.340	0.103
-737.054	-80.255	0.420	-0.141
-736.039	800.000	0.039	-0.155
-735.025	-111.283	-0.129	-0.026
-734.010	-61.697	-0.226	-0.095
-732.996	750.498	0.081	0.218
-731.981	199.266	-0.066	0.102
-730.966	-200.000	-0.027	-0.292
-729.952	-20.143	-0.034	-0.021
-728.937	-135.561	0.190	0.023
-727.923	54.071	0.091	-0.088
-726.908	-75.807	0.391	0.139
-725.894	-200.000	-0.036	0.337
-724.879	73.614	0.145	-0.153
-723.864	146.152	-0.091	-0.122
-722.850	2.261	-0.180	0.131
-721.835	-103.237	0.236	-0.056
-720.821	26.736	-0.325	0.273
-719.806	370.497	0.044	-0.089
-718.791	-200.000	0.062	-0.297
-717.777	116.205	-0.234	0.288
-716.762	53.258	-0.245	0.235
-715.748	22.333	-0.101	-0.083
-714.733	800.000	0.106	-0.300
-713.718	800.000	0.048	-0.182
-712.704	225.742	-0.078	0.127
-711.689	-26.417	-0.150	-0.088
-710.675	20.531	0.221	-0.179
-709.660	-161.052	-0.194	-0.010
-708.645	490.294	-0.056	-0.128
-707.631	-200.000	-0.000	-0.061
-706.616	-159.698	0.098	0.005
-705.602	136.646	-0.141	0.185
-704.587	800.000	-0.029	-0.111
-703.572	276.994	-0.215	0.383
-702.558	35.955	-0.162	-0.143
-701.543	169.904	0.136	-0.195
-700.529	800.000	0.076	-0.242
-699.514	-200.000	-0.020	-0.102
-698.499	267.843	-0.119	-0.210
-697.485	-95.996	-0.069	-0.018
-696.470	800.000	-0.149	0.441
-695.456	-200.000	-0.023	-0.224
-694.441	-118.542	-0.291	-0.052
-693.426	156.373	-0.131	-0.181
-692.412	25.690	0.107	-0.090
-691.397	267.011	-0.097	-0.169
-690.383	74.123	-0.135	0.142
-689.368	800.000	-0.043	0.165
-688.354	-75.452	-0.160	0.057
-687.339	800.000	0.052	-0.205
-686.324	-11.128	0.049	-0.032
-685.310	25.847	-0.143	0.120
-684.295	-13.666	0.240	-0.156
-683.281	800.000	0.046	-0.131
-682.266	343.942	-0.108	-0.212
-681.251	119.193	0.105	-0.130
-680.237	117.590	-0.110	0.135
-679.222	-172.011	-0.304	-0.010
-678.208	-50.742	0.204	0.096
-677.193	156.700	-0.227	0.315
-676.178	-135.223	-0.323	0.039
-675.164	280.092	0.032	-0.058
-674.149	635.541	0.097	-0.246
-673.135	6.930	-0.211	-0.157
-672.120	-130.123	-0.138	0.019
-671.105	800.000	0.022	-0.086
-670.091	800.000	0.061	-0.196
-669.076	4.830	0.335	0.247
-668.062	203.746	-0.087	0.135
-667.047	-200.000	0.009	-0.559
-666.032	-8.879	0.201	-0.135
-665.018	-58.514	0.127	0.055
-664.003	-179.689	-0.209	0.005
-662.989	800.000	-0.045	0.154
-661.974	-86.806	0.108	-0.033
-660.959	-46.626	0.185	0.091
-659.945	-200.000	-0.007	0.285
-658.930	-200.000	-0.040	-0.478
-657.916	27.200	0.083	-0.069
-656.901	-200.000	0.039	-0.273
-655.886	800.000	-0.081	0.328
-654.872	94.119	-0.124	-0.141
-653.857	26.410	-0.172	-0.144
-652.843	97.304	0.086	-0.099
-651.828	-44.861	-0.140	0.070
-650.814	463.291	0.115	-0.258
-649.799	800.000	-0.093	-0.320
-648.784	6.861	-0.100	0.074
-647.770	-199.998	-0.314	0.002
-646.755	-200.000	-0.010	-0.186
-645.741	-144.039	-0.171	-0.016
-644.726	53.056	0.192	0.184
-643.711	71.112	-0.149	0.155
-642.697	480.609	0.052	-0.118
-641.682	26.127	-0.105	-0.088
-640.668	-158.174	0.313	-0.018
-639.653	800.000	0.061	-0.235
-638.638	240.934	-0.140	-0.233
-637.624	800.000	-0.094	0.374
-636.609	-200.000	-0.021	0.260
-635.595	180.606	0.085	-0.125
-634.580	173.684	0.164	-0.236
-633.565	-17.785	0.122	-0.077
-632.551	-200.000	-0.027	-0.201
-631.536	345.857	0.129	0.254
-630.522	55.791	0.225	-0.218
-629.507	-118.256	0.122	-0.022
-628.492	-50.150	0.182	0.086
-627.478	-43.545	-0.016	-0.008
-626.463	-123.217	-0.279	-0.045
-625.449	720.519	0.052	0.137
-624.434	5.429	-0.247	-0.182
-623.419	-200.000	-0.181	0.000
-622.405	800.000	-0.035	0.132
-621.390	800.000	0.118	0.361
-620.376	753.400	-0.172	-0.464
-619.361	-0.340	-0.233	-0.166
-618.346	-200.000	-0.011	-0.272
-617.332	259.925	-0.094	-0.162
-616.317	-185.891	-0.236	-0.004
-615.303	-28.155	-0.381	0.220
-614.288	800.000	-0.115	-0.398
-613.273	-200.000	-0.021	-0.147
-612.259	-200.000	-0.017	-0.172
-611.244	384.230	-0.072	-0.149
-610.230	1.988	0.154	0.111
-609.215	23.587	-0.041	-0.033
-608.201	-200.000	-0.044	-0.358
-607.186	-49.630	-0.024	-0.012
-606.171	-109.760	-0.205	0.043
-605.157	800.000	-0.055	-0.160
-604.142	-144.826	-0.365	0.033
-603.128	6.226	-0.208	-0.154
-602.113	-97.472	0.178	0.046
-601.098	152.307	0.079	-0.108
-600.084	99.298	-0.256	-0.296
-599.069	622.055	0.014	-0.036
-598.055	-82.830	-0.151	-0.049
-597.040	25.531	0.066	0.055
-596.025	22.855	-0.143	0.117
-595.011	-59.044	0.096	0.041
-593.996	395.188	0.024	-0.049
-592.982	800.000	0.068	0.191
-591.967	421.131	0.061	-0.131
-590.952	-91.959	0.019	0.005
-589.938	82.268	-0.061	0.066
-588.923	-48.763	0.172	0.082
-587.909	332.139	-0.125	0.241
-586.894	-47.290	0.199	0.097
-585.879	-44.994	-0.190	0.094
-584.865	-71.643	0.145	-0.054
-583.850	-161.724	-0.086	-0.004
-582.836	800.000	0.121	0.404
-581.821	-135.183	0.225	-0.027
-580.806	107.635	0.182	0.216
-579.792	-83.753	-0.113	0.036
-578.777	39.521	-0.327	0.293
-577.763	140.818	0.069	0.091
-576.748	-200.000	-0.041	0.217
-575.733	-97.331	0.224	0.058
-574.719	-9.411	-0.304	-0.202
-573.704	-200.000	0.006	-0.186
-572.690	50.427	0.172	0.162
-571.675	-37.639	-0.183	-0.097
-570.661	-111.920	-0.137	-0.028
-569.646	-130.370	-0.061	-0.008
-568.631	-200.000	-0.004	-0.181
-567.617	263.769	-0.072	-0.124
-566.602	-70.432	0.200	-0.075
-565.588	-200.000	0.054	0.338
-564.573	-151.777	-0.165	-0.012
-563.558	-174.921	0.163	-0.005
-562.544	-200.000	-0.004	0.048
-561.529	-145.776	0.084	0.007
-560.515	-138.376	0.132	-0.014
-559.500	-0.423	-0.375	-0.265
-558.485	88.549	0.136	0.151
-557.471	800.000	0.024	-0.091
-556.456	-120.663	-0.025	0.004
-555.442	-68.137	0.388	0.151
-554.427	-82.940	-0.227	-0.073
-553.412	-84.114	0.194	-0.061
-552.398	314.377	0.106	0.199
-551.383	-200.000	0.051	-0.254
-550.369	-199.476	-0.329	0.002
-549.354	-185.545	0.278	0.004
-548.339	-127.523	0.119	-0.017
-547.325	49.815	0.183	-0.172
-546.310	26.346	0.034	-0.029
-545.296	800.000	-0.057	-0.190
-544.281	-200.000	-0.007	0.282
-543.266	-200.000	-0.018	0.148
-542.252	-200.000	0.061	0.287
-541.237	-176.807	0.250	-0.006
-540.223	-127.674	-0.191	0.028
-539.208	21.383	-0.051	-0.042
-538.193	-200.000	0.066	-0.327
-537.179	-125.142	0.042	0.006
-536.164	-111.688	0.388	-0.078
-535.150	-200.000	0.050	0.396
-534.135	139.582	0.111	-0.145
-533.121	-35.667	0.142	0.077
-532.106	-150.586	-0.110	0.008
-531.091	-117.415	-0.061	-0.011
-530.077	556.043	-0.051	0.124
-529.062	-141.833	0.306	-0.031
-528.048	-200.000	0.023	-0.214
-527.033	179.005	0.138	0.201
-526.018	-200.000	0.027	-0.307
-525.004	132.144	0.085	0.109
-523.989	529.197	0.135	-0.318
-522.975	-75.172	-0.081	0.029
-521.960	417.267	0.065	0.138
-520.945	-103.348	0.247	0.058
-519.931	88.432	-0.171	-0.189
-518.916	4.672	-0.279	-0.204
-517.902	-33.417	0.133	-0.073
-516.887	-200.000	0.006	0.083
-515.872	-117.929	0.618	-0.110
-514.858	-200.000	0.004	0.176
-513.843	-200.000	0.002	0.085
-512.829	326.702	-0.033	-0.064
-511.814	-200.000	-0.052	-0.234
-510.799	-25.944	-0.124	-0.073
-509.785	-200.000	-0.008	-0.124
-508.770	172.044	-0.135	-0.192
-507.756	-123.054	-0.354	0.057
-506.741	-183.804	0.067	-0.001
-505.726	428.641	-0.071	-0.152
-504.712	800.000	0.039	0.144
-503.697	-200.000	0.055	-0.334
-502.683	16.053	-0.150	0.117
-501.668	479.536	-0.093	0.211
-500.653	-133.661	0.453	-0.056
-499.639	62.814	-0.146	0.146
-498.624	163.743	0.180	0.252
-497.610	-8.846	0.260	0.173
-496.595	97.072	-0.117	-0.134
-495.581	-200.000	0.035	-0.438
-494.566	-47.221	0.105	-0.051
-493.551	454.678	0.142	0.313
-492.537	-200.000	-0.015	0.126
-491.522	-25.268	0.081	0.048
-490.508	569.488	0.181	-0.438
-489.493	-200.000	-0.005	-0.238
-488.478	454.931	-0.033	0.073
-487.464	-143.988	0.034	0.003
-486.449	81.487	0.115	0.124
-485.435	343.357	-0.030	0.058
-484.420	800.000	0.082	-0.304
-483.405	-123.749	-0.256	0.040
-482.391	-200.000	0.009	0.480
-481.376	-76.117	0.216	0.076
-480.362	334.811	-0.235	-0.452
-479.347	52.323	0.019	-0.018
-478.332	-169.037	0.202	0.007
-477.318	245.379	-0.208	0.348
-476.303	-16.416	0.378	0.238
-475.289	-128.481	0.126	-0.018
-474.274	-200.000	-0.696	0.002
-473.259	473.913	0.100	-0.224
-472.245	-123.874	0.050	-0.008
-471.230	-200.000	0.010	-0.064
-470.216	-173.305	-0.399	0.012
-469.201	-82.995	0.079	-0.025
-468.186	-36.036	0.405	-0.217
-467.172	264.870	0.058	-0.101
-466.157	-146.145	-0.364	0.032
-465.143	-42.432	0.152	0.077
-464.128	-117.096	0.143	0.026
-463.113	800.000	0.054	0.150
-462.099	70.891	-0.303	-0.312
-461.084	-52.611	0.070	0.032
-460.070	800.000	0.021	0.063
-459.055	-22.949	-0.108	-0.065
-458.040	-32.047	0.061	-0.034
-457.026	-106.762	-0.327	-0.072
-456.011	-105.950	0.172	-0.038
-454.997	-122.666	-0.526	0.085
-453.982	49.969	0.142	-0.133
-452.968	-190.248	0.102	0.001
-451.953	-148.242	0.196	0.016
-450.938	45.648	-0.186	0.171
-449.924	-200.000	0.050	-0.345
-448.909	80.694	0.052	0.055
-447.895	-200.000	0.017	-0.274
-446.880	-200.000	0.058	0.288
-445.865	292.197	0.020	0.037
-444.851	800.000	0.102	-0.288
-443.836	-124.593	-0.520	-0.080
-442.822	-105.403	0.266	0.060
-441.807	107.547	0.385	-0.455
-440.792	800.000	0.045	-0.154
-439.778	122.701	0.178	-0.221
-438.763	-146.547	-0.419	-0.036
-437.749	-51.559	0.039	0.018
-436.734	800.000	0.093	-0.256
-435.719	-92.399	0.153	-0.043
-434.705	-200.000	-0.013	0.366
-433.690	-47.122	0.170	-0.082
-432.676	40.873	-0.109	-0.097
-431.661	689.629	0.094	0.244
-430.646	-110.261	0.304	-0.063
-429.632	-38.226	-0.310	0.163
-428.617	800.000	-0.016	0.063
-427.603	-200.000	0.069	0.344
-426.588	-200.000	-0.034	-0.175
-425.573	-42.109	0.255	0.130
-424.559	-145.479	-0.127	0.011
-423.544	6.967	-0.102	-0.075
-422.530	-200.000	0.005	-0.046
-421.515	-42.219	-0.043	-0.022
-420.500	-200.000	-0.019	0.119
-419.486	-83.087	0.144	-0.046
-418.471	800.000	0.050	-0.169
-417.457	-165.982	-0.071	0.003
-416.442	-103.264	0.286	0.067
-415.428	-130.920	-0.112	0.015
-414.413	-200.000	-0.010	-0.461
-413.398	-71.050	-0.088	-0.033
-412.384	800.000	0.048	0.169
-411.369	-200.000	-0.022	-0.194
-410.355	-64.060	0.193	0.078
-409.340	24.121	0.196	-0.161
-408.325	-151.688	-0.521	0.038
-407.311	-200.000	0.057	-0.266
-406.296	-103.382	-0.091	-0.021
-405.282	148.481	-0.097	-0.129
-404.267	-43.615	-0.079	-0.040
-403.252	-128.700	0.133	0.019
-402.238	51.875	0.107	-0.101
-401.223	-67.897	0.215	-0.083
-400.209	-200.000	0.001	-0.123
-399.194	-22.872	-0.330	0.198
-398.179	-200.000	-0.041	-0.314
-397.165	-200.000	-0.018	0.080
-396.150	800.000	0.074	-0.305
-395.136	620.641	-0.034	0.085
-394.121	-6.264	0.271	-0.183
-393.106	78.503	0.087	0.092
-392.092	-126.587	-0.435	0.064
-391.077	-61.997	0.157	0.065
-390.063	419.424	0.050	-0.105
-389.048	800.000	0.028	-0.079
-388.033	-51.001	-0.253	-0.117
-387.019	-93.664	0.104	0.028
-386.004	-189.405	-0.263	0.003
-384.990	-46.168	0.147	-0.072
-383.975	-111.770	0.316	-0.063
-382.960	110.182	-0.158	0.188
-381.946	121.652	0.094	0.116
-380.931	218.797	0.092	-0.146
-379.917	281.415	0.209	0.370
-378.902	314.420	0.124	0.232
-377.888	75.120	0.103	0.108
-376.873	-66.052	-0.221	0.087
-375.858	59.221	-0.020	0.020
-374.844	-17.259	-0.232	0.145
-373.829	800.000	0.011	-0.032
-372.815	43.903	-0.324	0.294
-371.800	275.899	-0.105	0.185
-370.785	-200.000	0.000	-0.014
-369.771	-200.000	0.015	0.259
-368.756	-100.566	0.043	-0.010
-367.742	-200.000	0.016	0.106
-366.727	-200.000	0.002	0.196
-365.712	342.327	0.231	0.448
-364.698	28.607	-0.091	-0.076
-363.683	-200.000	-0.019	-0.218
-362.669	0.399	0.087	0.061
-361.654	-70.107	0.245	-0.092
-360.639	91.061	-0.186	-0.207
-359.625	-71.131	0.200	0.074
-358.610	22.845	-0.136	-0.110
-357.596	-60.750	0.090	-0.038
-356.581	-153.216	0.325	0.022
-355.566	-47.046	-0.183	0.088
-354.552	198.930	-0.176	-0.267
-353.537	-122.566	0.115	0.018
-352.523	106.918	0.175	-0.205
-351.508	-130.649	-0.155	0.021
-350.493	191.507	0.125	-0.186
-349.479	43.198	0.169	0.153
-348.464	-95.933	-0.239	-0.063
-347.450	-31.027	0.202	-0.113
-346.435	-75.393	-0.066	-0.023
-345.420	421.200	-0.036	0.077
-344.406	-200.000	0.051	0.340
-343.391	-200.000	0.050	0.406
-342.377	800.000	-0.053	-0.169
-341.362	116.581	0.014	-0.017
-340.348	15.999	-0.180	-0.140
-339.333	-37.895	0.312	0.164
-338.318	-11.846	-0.301	-0.195
-337.304	-61.213	0.109	0.045
-336.289	251.133	0.101	-0.171
-335.275	-118.584	-0.282	0.049
-334.260	-108.378	-0.094	-0.020
-333.245	179.121	0.095	-0.137
-332.231	84.838	-0.067	-0.072
-331.216	368.298	-0.036	0.071
-330.202	-10.474	-0.120	-0.079
-329.187	-54.808	-0.160	-0.071
-328.172	-116.033	0.201	0.037
-327.158	585.678	0.161	-0.390
-326.143	114.479	-0.155	0.187
-325.129	-200.000	0.019	-0.113
-324.114	-53.530	-0.277	-0.125
-323.099	-200.000	-0.011	0.168
-322.085	-126.611	-0.485	-0.071
-321.070	-123.019	-0.412	0.065
-320.056	108.515	0.287	0.339
-319.041	158.016	0.167	0.229
-318.026	800.000	0.137	0.426
-317.012	800.000	-0.041	0.122
-315.997	250.725	0.103	0.173
-314.983	-200.000	0.023	0.272
-313.968	-200.000	0.037	0.232
-312.953	-200.000	0.013	-0.130
-311.939	-59.050	0.111	0.047
-310.924	207.381	0.079	0.122
-309.910	94.277	-0.107	-0.120
-308.895	-65.428	-0.329	0.131
-307.880	800.000	0.049	0.193
-306.866	32.690	-0.353	-0.301
-305.851	-25.094	0.144	-0.084
-304.837	-6.183	0.117	0.079
-303.822	52.332	-0.256	0.241
-302.807	111.264	-0.270	0.321
-301.793	17.633	-0.106	-0.083
-300.778	800.000	-0.010	-0.029
-299.764	404.959	-0.033	0.068
-298.749	40.768	-0.141	-0.126
-297.735	-200.000	0.001	0.139
-296.720	-161.385	-0.179	-0.009
-295.705	76.176	0.267	-0.279
-294.691	17.482	0.212	-0.166
-293.676	-67.221	0.287	-0.111
-292.662	356.371	-0.046	-0.090
-291.647	301.444	0.176	0.321
-290.632	-153.039	0.189	-0.013
-289.618	-200.000	-0.010	-0.051
-288.603	-200.000	-0.012	0.098
-287.589	-95.677	-0.202	0.053
-286.574	-200.000	-0.003	0.173
-285.559	27.600	-0.255	0.211
-284.545	586.279	-0.038	0.093
-283.530	26.818	-0.200	0.166
-282.516	800.000	-0.080	0.226
-281.501	-133.027	-0.184	0.023
-280.486	800.000	0.062	-0.209
-279.472	175.286	0.116	0.166
-278.457	461.820	0.065	-0.144
-277.443	-81.628	0.089	-0.029
-276.428	-92.036	0.134	0.037
-275.413	-146.494	0.295	-0.025
-274.399	800.000	-0.067	-0.199
-273.384	63.383	-0.159	-0.157
-272.370	425.016	-0.049	0.104
-271.355	-44.098	-0.276	-0.137
-270.340	-200.000	-0.030	0.158
-269.326	-186.405	0.342	-0.005
-268.311	268.903	-0.126	-0.218
-267.297	358.711	-0.085	0.167
-266.282	187.291	-0.169	-0.248
-265.267	619.771	0.031	0.077
-264.253	101.420	0.172	0.198
-263.238	800.000	-0.139	0.409
-262.224	-73.784	0.339	-0.121
-261.209	259.684	0.189	0.322
-260.195	-200.000	-0.039	-0.206
-259.180	26.758	0.130	-0.107
-258.165	-18.522	-0.374	-0.230
-257.151	800.000	-0.064	0.217
-256.136	-200.000	0.012	0.053
-255.122	-51.761	0.098	0.045
-254.107	-68.040	-0.046	-0.018
-253.092	-200.000	0.001	0.138
-252.078	-200.000	-0.042	-0.348
-251.063	27.970	-0.307	-0.255
-250.049	367.981	-0.108	-0.216
-249.034	-200.000	0.031	-0.172
-248.019	218.496	0.020	-0.032
-247.005	-140.772	0.130	0.013
-245.990	-200.000	-0.023	-0.348
-244.976	-28.586	-0.345	0.196
-243.961	-103.199	-0.173	0.040
-242.946	-200.000	-0.026	0.140
-241.932	-200.000	-0.019	-0.325
-240.917	68.351	0.121	0.122
-239.903	768.191	0.135	-0.361
-238.888	6.585	0.175	0.128
-237.873	-130.410	0.053	0.007
-236.859	-200.000	-0.035	-0.267
-235.844	-47.696	-0.186	0.089
-234.830	-118.704	-0.138	0.024
-233.815	-102.780	-0.067	-0.016
-232.800	-175.703	0.153	0.004
-231.786	-130.600	0.026	0.003
-230.771	232.683	-0.150	0.242
-229.757	-119.532	-0.063	0.011
-228.742	24.933	-0.154	-0.126
-227.727	-200.000	0.010	-0.091
-226.713	89.164	0.099	0.109
-225.698	-95.612	0.024	0.006
-224.684	-191.885	-0.103	-0.001
-223.669	182.132	0.121	-0.176
-222.655	-81.368	0.149	-0.048
-221.640	-200.000	0.020	0.230
-220.625	13.965	-0.095	-0.073
-219.611	-81.368	0.174	-0.056
-218.596	-85.702	-0.201	0.062
-217.582	56.300	0.076	-0.073
-216.567	-88.818	-0.106	0.031
-215.552	46.380	-0.072	0.066
-214.538	-56.837	-0.039	0.017
-213.523	800.000	-0.065	0.244
-212.509	800.000	0.043	-0.141
-211.494	62.053	-0.317	-0.311
-210.479	447.290	-0.158	0.343
-209.465	-97.734	0.245	0.062
-208.450	-200.000	-0.001	0.175
-207.436	800.000	-0.083	0.250
-206.421	-10.875	0.049	-0.032
-205.406	-200.000	-0.006	-0.093
-204.392	800.000	-0.073	-0.231
-203.377	38.497	0.115	0.101
-202.363	-21.255	0.272	0.164
-201.348	-200.000	-0.092	0.635
-200.333	800.000	0.093	-0.261
-199.319	61.407	-0.250	-0.245
-198.304	66.129	0.245	-0.244
-197.290	-138.810	0.213	0.023
-196.275	800.000	0.097	0.305
-195.260	4.301	-0.279	0.201
-194.246	-139.309	0.228	0.024
-193.231	263.681	0.073	0.125
-192.217	-33.356	-0.316	-0.172
-191.202	8.809	0.375	0.278
-190.187	234.999	0.052	-0.085
-189.173	-23.288	-0.223	0.132
-188.158	-45.492	-0.238	0.116
-187.144	-80.582	0.512	0.168
-186.129	20.342	0.221	-0.175
-185.114	-5.575	-0.070	0.047
-184.100	-109.754	-0.215	-0.044
-183.085	153.523	-0.289	-0.389
-182.071	-127.890	0.122	0.017
-181.056	-200.000	0.011	0.111
-180.042	189.157	-0.148	0.219
-179.027	-200.000	0.033	-0.171
-178.012	246.258	0.070	0.115
-176.998	-200.000	0.014	-0.178
-175.983	29.760	-0.207	-0.173
-174.969	75.513	0.058	-0.060
-173.954	-153.926	-0.063	-0.004
-172.939	18.008	0.158	0.124
-171.925	800.000	0.077	0.322
-170.910	-127.850	-0.412	-0.058
-169.896	26.869	0.296	0.244
-168.881	-43.995	0.153	0.075
-167.866	-200.000	-0.037	0.180
-166.852	0.858	-0.202	-0.142
-165.837	732.196	0.047	0.124
-164.823	-153.414	0.256	-0.017
-163.808	-31.324	0.276	-0.153
-162.793	25.278	0.204	0.167
-161.779	53.870	-0.150	0.141
-160.764	-77.959	-0.156	0.053
-159.750	712.332	0.084	0.219
-158.735	-49.653	0.441	0.206
-157.720	8.424	0.138	0.102
-156.706	-6.976	0.116	-0.077
-155.691	-89.879	-0.141	-0.040
-154.677	-200.000	-0.011	0.195
-153.662	-200.000	-0.038	0.191
-152.647	-68.374	0.208	0.079
-151.633	34.945	-0.082	0.071
-150.618	-90.864	-0.297	0.084
-149.604	-118.255	0.269	-0.047
-148.589	-200.000	0.028	-0.188
-147.574	-40.462	-0.115	-0.058
-146.560	632.162	-0.103	-0.255
-145.545	21.043	0.239	-0.190
-144.531	-128.282	-0.248	0.035
-143.516	-26.754	-0.327	0.188
-142.502	-200.000	-0.004	0.094
-141.487	77.570	-0.231	-0.241
-140.472	-200.000	0.032	-0.162
-139.458	-91.313	-0.089	0.025
-138.443	-58.857	-0.047	-0.020
-137.429	-200.000	0.003	0.105
-136.414	149.346	-0.070	-0.093
-135.399	52.051	0.484	0.452
-134.385	-12.262	-0.194	-0.124
-133.370	-43.907	-0.011	-0.005
-132.356	-200.000	-0.039	0.291
-131.341	800.000	-0.091	0.327
-130.326	68.730	-0.215	0.216
-129.312	-24.590	0.158	-0.092
-128.297	-200.000	-0.002	0.077
-127.283	-90.196	-0.323	-0.092
-126.268	758.689	0.076	0.201
-125.253	-46.379	0.150	0.072
-124.239	333.423	-0.096	-0.182
-123.224	-85.958	0.423	0.128
-122.210	108.277	-0.198	0.232
