DTS Sentinel unit serial number:	SN413079Multiplexer serial number:	ORYXHardware model number:	OX4-SRSoftware version number:	ORYX F/W v4.00 Oryx Data Collector v3.7.2.0data status	okinstallation	princeton_trtdifferential loss correction	single-endedforward channel	channel 1reverse channel	N/Adate	2019/09/11time	05:32:11forward acquisition time	60.00reverse acquisition time	0.00gamma	496.2192k internal	0.2330k external	0.2330temperature offset calibration	0.9928default loss term (dB/km)	0.3790temperature slope calibration	1.0000multiplexer offset coefficient	1.0000multiplexer slope coefficient	1.0000fibre end	0.00T internal ref (°C)	29.41T ext. ref 1 (°C)	-0.22T ext. ref 2 (°C)	23.30length (m)	temperature (°C)	Stokes	anti-Stokes-747.200	-60.831	-0.346	-0.148
-746.185	-9.841	0.242	0.162
-745.171	98.984	0.192	-0.224
-744.156	-75.669	-0.488	-0.174
-743.142	122.492	0.132	-0.166
-742.127	383.743	-0.122	0.253
-741.112	1.738	0.079	0.058
-740.098	800.000	-0.087	0.269
-739.083	176.682	0.068	0.099
-738.069	-200.000	-0.021	-0.122
-737.054	135.134	-0.187	0.244
-736.039	-92.921	-0.287	0.081
-735.025	800.000	0.069	-0.213
-734.010	6.436	-0.338	-0.252
-732.996	-70.670	-0.231	-0.088
-731.981	89.133	0.083	0.093
-730.966	-200.000	0.030	0.164
-729.952	800.000	-0.027	0.104
-728.937	-200.000	0.018	-0.259
-727.923	-16.894	-0.220	0.140
-726.908	-86.838	-0.235	-0.072
-725.894	68.663	-0.142	-0.146
-724.879	-31.018	-0.244	-0.139
-723.864	16.382	-0.230	-0.182
-722.850	-200.000	-0.053	0.251
-721.835	-200.000	-0.002	-0.068
-720.821	-9.249	-0.282	0.190
-719.806	-122.565	-0.220	-0.036
-718.791	12.544	-0.030	-0.023
-717.777	-200.000	-0.040	0.285
-716.762	-200.000	-0.038	-0.313
-715.748	-9.691	0.130	0.087
-714.733	103.093	-0.311	-0.367
-713.718	-200.000	0.040	0.247
-712.704	-43.255	0.570	0.290
-711.689	-157.816	0.074	-0.004
-710.675	250.113	-0.244	-0.417
-709.660	-200.000	-0.002	0.019
-708.645	-17.382	0.134	-0.085
-707.631	800.000	-0.050	-0.140
-706.616	532.169	-0.101	0.239
-705.602	-200.000	-0.005	-0.110
-704.587	446.891	0.053	-0.117
-703.572	670.056	0.117	-0.306
-702.558	-101.616	-0.123	-0.030
-701.543	-19.173	0.271	0.169
-700.529	611.887	-0.013	0.033
-699.514	-200.000	0.014	0.359
-698.499	10.929	0.311	0.239
-697.485	-16.687	0.159	0.101
-696.470	195.200	0.068	-0.104
-695.456	-124.045	0.272	0.043
-694.441	-200.000	-0.012	-0.415
-693.426	-174.168	0.135	-0.004
-692.412	-107.176	-0.079	0.018
-691.397	-200.000	-0.035	-0.213
-690.383	253.862	-0.149	0.255
-689.368	-14.880	-0.147	0.095
-688.354	-65.590	-0.112	0.045
-687.339	-200.000	-0.049	0.311
-686.324	680.807	0.114	-0.299
-685.310	-28.767	-0.250	0.144
-684.295	800.000	-0.057	-0.223
-683.281	-74.883	0.130	0.047
-682.266	-200.000	0.044	-0.395
-681.251	212.744	0.064	-0.102
-680.237	-200.000	-0.016	-0.259
-679.222	256.748	-0.171	0.295
-678.208	-23.908	-0.154	0.092
-677.193	-161.531	-0.139	0.007
-676.178	-9.866	-0.167	0.111
-675.164	-63.153	-0.125	-0.052
-674.149	0.679	-0.142	0.102
-673.135	-110.020	0.126	-0.026
-672.120	-200.000	-0.059	0.378
-671.105	-101.693	-0.233	-0.057
-670.091	208.830	-0.160	-0.252
-669.076	8.914	0.434	0.328
-668.062	-200.000	-0.027	-0.137
-667.047	75.913	-0.149	-0.159
-666.032	-117.221	-0.330	0.060
-665.018	-15.081	0.294	-0.189
-664.003	524.413	-0.095	0.224
-662.989	-106.748	-0.304	-0.068
-661.974	164.507	0.112	-0.158
-660.959	184.073	-0.033	-0.049
-659.945	-24.542	-0.177	0.106
-658.930	41.688	0.128	-0.116
-657.916	-76.614	0.123	0.043
-656.901	534.836	-0.064	0.153
-655.886	589.464	-0.068	0.167
-654.872	11.660	0.188	0.144
-653.857	43.628	-0.181	-0.166
-652.843	-200.000	0.019	-0.264
-651.828	-124.792	-0.428	0.066
-650.814	2.503	0.079	0.057
-649.799	-200.000	-0.042	-0.358
-648.784	-153.810	0.190	-0.013
-647.770	78.542	-0.197	0.211
-646.755	-83.984	-0.099	-0.032
-645.741	-119.638	-0.187	-0.032
-644.726	-109.210	0.125	-0.027
-643.711	109.886	-0.278	0.335
-642.697	800.000	-0.010	-0.042
-641.682	-77.518	-0.106	0.037
-640.668	-200.000	-0.021	0.127
-639.653	77.245	-0.170	0.181
-638.638	800.000	0.069	-0.237
-637.624	339.460	-0.092	0.180
-636.609	800.000	0.116	-0.364
-635.595	-111.108	0.205	0.042
-634.580	-200.000	0.051	-0.318
-633.565	6.917	-0.211	-0.158
-632.551	23.533	0.154	-0.127
-631.536	335.541	-0.071	-0.137
-630.522	169.521	-0.083	0.118
-629.507	-200.000	0.009	0.283
-628.492	10.501	0.080	0.061
-627.478	800.000	0.008	0.034
-626.463	-128.371	-0.215	0.031
-625.449	-79.752	-0.273	0.092
-624.434	-136.565	-0.409	0.047
-623.419	793.327	0.037	-0.101
-622.405	-147.140	-0.230	-0.020
-621.390	-19.431	0.105	-0.065
-620.376	412.352	0.062	-0.132
-619.361	-200.000	0.078	-0.407
-618.346	-200.000	-0.083	-0.366
-617.332	157.366	-0.081	0.112
-616.317	-112.758	-0.070	0.014
-615.303	681.145	0.055	0.142
-614.288	-200.000	0.029	0.208
-613.273	-120.145	0.385	-0.066
-612.259	-12.688	-0.021	-0.014
-611.244	-200.000	-0.028	-0.364
-610.230	-21.927	0.022	0.013
-609.215	-30.242	-0.187	0.106
-608.201	-174.565	-0.102	-0.003
-607.186	-148.096	0.163	0.014
-606.171	-11.261	0.185	0.122
-605.157	115.042	0.201	0.246
-604.142	-155.430	-0.187	-0.012
-603.128	-69.164	0.031	0.012
-602.113	8.461	-0.192	0.144
-601.098	67.180	-0.265	-0.271
-600.084	-200.000	0.051	0.350
-599.069	-38.321	-0.258	0.137
-598.055	24.856	-0.052	-0.043
-597.040	-103.479	0.443	0.104
-596.025	-91.246	0.088	-0.025
-595.011	800.000	-0.052	-0.210
-593.996	-200.000	0.045	0.301
-592.982	-42.705	-0.168	0.085
-591.967	407.305	0.051	-0.108
-590.952	9.154	-0.084	-0.064
-589.938	-101.414	-0.272	-0.066
-588.923	65.076	0.156	-0.158
-587.909	-121.343	0.162	-0.027
-586.894	-0.430	-0.114	-0.081
-585.879	-41.121	-0.078	-0.041
-584.865	-200.000	0.006	-0.115
-583.850	-123.120	0.189	0.030
-582.836	-6.733	-0.060	-0.041
-581.821	-60.385	0.321	0.136
-580.806	-59.263	-0.274	0.118
-579.792	-66.717	0.356	-0.141
-578.777	214.063	0.036	0.056
-577.763	-51.851	-0.281	0.131
-576.748	800.000	-0.030	0.104
-575.733	195.896	-0.085	-0.129
-574.719	-62.164	0.447	-0.186
-573.704	-159.788	0.057	0.003
-572.690	-14.743	-0.330	0.212
-571.675	-69.887	-0.106	-0.041
-570.661	-200.000	-0.273	0.001
-569.646	21.612	0.395	0.321
-568.631	-56.509	-0.151	0.067
-567.617	800.000	-0.098	0.327
-566.602	-200.000	0.020	0.125
-565.588	-139.839	-0.291	-0.031
-564.573	-19.829	-0.279	-0.173
-563.558	621.682	-0.225	-0.566
-562.544	150.177	0.244	0.331
-561.529	81.924	0.254	0.275
-560.515	-104.636	0.154	-0.035
-559.500	800.000	0.053	0.151
-558.485	78.559	-0.102	-0.109
-557.471	800.000	-0.043	0.129
-556.456	-200.000	0.002	-0.110
-555.442	728.692	-0.066	0.175
-554.427	-200.000	-0.054	0.376
-553.412	64.420	0.367	-0.369
-552.398	2.234	-0.073	-0.053
-551.383	-141.277	0.243	0.025
-550.369	-156.209	-0.190	0.012
-549.354	-180.246	-0.217	-0.005
-548.339	-200.000	0.006	0.048
-547.325	-200.000	0.025	0.148
-546.310	-63.976	-0.271	0.111
-545.296	9.755	0.042	-0.032
-544.281	69.919	0.198	-0.205
-543.266	260.603	-0.056	-0.096
-542.252	-200.000	-0.017	-0.280
-541.237	-200.000	0.002	0.240
-540.223	175.708	-0.165	0.239
-539.208	126.176	0.147	-0.186
-538.193	-34.232	-0.385	0.211
-537.179	-144.737	-0.157	0.014
-536.164	-91.101	-0.171	-0.049
-535.150	-200.000	0.048	-0.374
-534.135	800.000	0.080	-0.288
-533.121	-95.007	-0.251	-0.068
-532.106	354.880	0.093	0.184
-531.091	68.327	0.030	-0.031
-530.077	170.107	0.059	-0.084
-529.062	-92.549	-0.322	-0.090
-528.048	384.464	0.087	-0.180
-527.033	7.092	-0.285	-0.212
-526.018	63.479	0.192	0.192
-525.004	-200.000	0.012	-0.052
-523.989	-139.317	0.061	-0.007
-522.975	-200.000	-0.008	0.317
-521.960	64.760	-0.170	-0.171
-520.945	361.003	-0.074	-0.147
-519.931	-91.526	-0.094	-0.027
-518.916	800.000	0.087	-0.252
-517.902	-200.000	0.012	0.070
-516.887	-200.000	0.010	-0.072
-515.872	-69.541	0.114	0.044
-514.858	-179.251	-0.183	0.004
-513.843	-18.021	-0.236	-0.148
-512.829	86.693	0.058	-0.064
-511.814	25.166	-0.450	0.372
-510.799	-107.918	-0.124	-0.027
-509.785	-200.000	0.008	-0.082
-508.770	89.390	0.222	-0.247
-507.756	-10.914	0.112	0.074
-506.741	262.539	0.037	0.064
-505.726	-19.204	-0.124	0.077
-504.712	7.731	-0.127	0.095
-503.697	-20.065	-0.217	-0.134
-502.683	24.813	-0.238	-0.197
-501.668	-200.000	-0.004	0.067
-500.653	569.818	0.071	-0.173
-499.639	-37.331	-0.454	0.242
-498.624	-73.722	0.142	0.052
-497.610	-6.045	-0.161	-0.110
-496.595	800.000	-0.109	-0.309
-495.581	-147.984	0.167	0.014
-494.566	-18.346	-0.128	-0.080
-493.551	-36.084	0.212	0.114
-492.537	-101.823	0.190	0.046
-491.522	800.000	-0.065	0.225
-490.508	76.680	-0.198	0.209
-489.493	33.741	0.100	-0.087
-488.478	-200.000	-0.008	-0.277
-487.464	-12.907	0.238	0.154
-486.449	800.000	0.050	0.192
-485.435	-200.000	0.016	-0.367
-484.420	-138.525	0.424	-0.046
-483.405	-200.000	0.017	-0.127
-482.391	80.966	0.068	-0.073
-481.376	-130.619	0.401	-0.054
-480.362	318.109	-0.086	-0.163
-479.347	-125.961	-0.056	-0.008
-478.332	-200.000	-0.055	-0.519
-477.318	151.671	0.181	-0.246
-476.303	800.000	0.039	-0.132
-475.289	-200.000	-0.001	-0.344
-474.274	111.347	-0.236	-0.284
-473.259	230.142	-0.065	-0.107
-472.245	96.491	0.116	0.132
-471.230	479.093	-0.143	-0.322
-470.216	-200.000	-0.027	0.215
-469.201	47.731	0.079	-0.073
-468.186	470.087	-0.122	0.273
-467.172	-45.847	0.251	0.123
-466.157	274.689	-0.142	-0.251
-465.143	1.342	0.100	-0.072
-464.128	19.547	0.196	-0.157
-463.113	36.266	0.071	-0.062
-462.099	-61.049	0.144	-0.061
-461.084	429.107	0.090	0.193
-460.070	-200.000	-0.053	-0.404
-459.055	-200.000	-0.016	0.188
-458.040	366.399	-0.128	-0.257
-457.026	-84.732	-0.226	-0.071
-456.011	-53.363	-0.106	-0.048
-454.997	10.225	0.149	-0.113
-453.982	-200.000	0.025	-0.245
-452.968	-80.503	0.330	-0.110
-451.953	-71.535	-0.288	0.107
-450.938	353.002	0.154	-0.303
-449.924	-68.724	0.064	0.025
-448.909	-200.000	-0.011	-0.527
-447.895	-200.000	0.023	-0.467
-446.880	-200.000	0.044	-0.237
-445.865	-15.291	-0.232	-0.148
-444.851	13.687	0.314	0.243
-443.836	-48.980	-0.391	-0.187
-442.822	-200.000	0.019	0.196
-441.807	48.823	-0.167	0.156
-440.792	800.000	0.133	0.483
-439.778	-90.810	0.369	0.106
-438.763	166.897	-0.056	0.079
-437.749	-200.000	0.053	-0.363
-436.734	104.308	-0.296	0.346
-435.719	-200.000	0.015	-0.142
-434.705	-107.963	0.293	-0.063
-433.690	-31.009	0.134	0.075
-432.676	800.000	0.124	-0.351
-431.661	84.994	0.037	-0.041
-430.646	-66.925	-0.165	0.065
-429.632	-200.000	0.027	-0.278
-428.617	800.000	-0.039	0.115
-427.603	800.000	0.035	-0.140
-426.588	14.660	0.349	0.271
-425.573	310.460	-0.155	-0.288
-424.559	-33.005	-0.074	0.041
-423.544	-47.857	0.155	-0.075
-422.530	-46.765	0.121	0.059
-421.515	256.156	-0.204	0.348
-420.500	-52.099	0.344	-0.159
-419.486	179.344	0.116	0.168
-418.471	-200.000	0.002	-0.087
-417.457	382.741	0.019	-0.039
-416.442	-121.301	-0.251	-0.042
-415.428	-120.256	-0.125	0.021
-414.413	-200.000	-0.016	0.182
-413.398	206.376	0.120	-0.186
-412.384	68.338	-0.150	0.153
-411.369	-29.823	-0.239	-0.136
-410.355	621.532	-0.108	-0.270
-409.340	-200.000	-0.017	0.205
-408.325	-57.258	0.200	0.087
-407.311	-140.534	-0.285	0.029
-406.296	-128.440	-0.162	-0.023
-405.282	-3.858	-0.353	0.244
-404.267	-171.563	-0.091	0.003
-403.252	-200.000	0.056	0.318
-402.238	-58.035	0.265	-0.115
-401.223	-71.497	0.242	0.090
-400.209	17.212	-0.127	0.100
-399.194	800.000	0.064	0.183
-398.179	481.784	-0.081	0.182
-397.165	-36.476	-0.072	-0.038
-396.150	-200.000	0.038	-0.255
-395.136	800.000	-0.050	0.175
-394.121	-200.000	-0.013	0.217
-393.106	237.203	-0.101	0.166
-392.092	-2.716	0.265	-0.184
-391.077	-51.713	0.354	0.164
-390.063	188.613	-0.085	-0.127
-389.048	187.894	-0.144	0.214
-388.033	66.884	0.198	-0.200
-387.019	-67.374	-0.086	-0.033
-386.004	59.930	0.370	-0.362
-384.990	-160.589	-0.153	-0.008
-383.975	-64.849	-0.367	0.147
-382.960	800.000	0.091	0.373
-381.946	-22.401	0.063	-0.038
-380.931	10.782	0.196	-0.149
-379.917	-154.970	0.310	0.020
-378.902	-88.303	-0.172	0.051
-377.888	-172.336	-0.238	-0.008
-376.873	93.061	-0.105	0.118
-375.858	-200.000	-0.014	0.155
-374.844	259.155	0.185	0.317
-373.829	-92.628	0.171	-0.048
-372.815	33.392	-0.104	-0.090
-371.800	-200.000	0.000	-0.091
-370.785	-144.182	-0.433	0.040
-369.771	-16.924	-0.142	0.089
-368.756	495.428	-0.007	0.016
-367.742	-200.000	-0.031	-0.201
-366.727	123.923	0.061	0.076
-365.712	376.167	0.033	-0.067
-364.698	207.383	-0.020	0.031
-363.683	800.000	0.102	-0.411
-362.669	-200.000	0.050	-0.327
-361.654	-200.000	-0.014	0.197
-360.639	58.195	0.232	0.225
-359.625	-16.929	0.322	-0.202
-358.610	298.145	-0.145	-0.263
-357.596	-31.728	0.149	-0.083
-356.581	157.668	0.159	-0.218
-355.566	800.000	0.105	0.417
-354.552	725.131	0.080	0.211
-353.537	-57.409	0.109	0.048
-352.523	-200.000	-0.014	0.121
-351.508	-200.000	0.004	-0.071
-350.493	800.000	-0.057	0.232
-349.479	-87.383	0.308	-0.093
-348.464	-55.620	-0.171	0.076
-347.450	-71.023	0.317	-0.118
-346.435	-9.402	-0.069	-0.046
-345.420	317.684	0.032	-0.059
-344.406	-192.776	-0.087	0.001
-343.391	425.076	-0.160	-0.342
-342.377	491.965	0.058	0.133
-341.362	-159.800	-0.122	-0.007
-340.348	117.085	0.159	0.193
-339.333	-3.494	-0.182	-0.126
-338.318	-129.831	0.478	-0.065
-337.304	184.867	-0.138	0.203
-336.289	-38.572	-0.352	0.185
-335.275	-67.024	-0.382	0.149
-334.260	-102.274	0.253	-0.060
-333.245	-92.809	0.171	-0.048
-332.231	-200.000	-0.009	0.140
-331.216	181.526	0.237	-0.345
-330.202	-200.000	-0.012	0.148
-329.187	510.637	0.058	-0.134
-328.172	-200.000	-0.007	0.259
-327.158	-177.569	0.066	-0.002
-326.143	-124.281	-0.037	-0.006
-325.129	40.929	-0.134	-0.120
-324.114	-7.066	0.132	0.089
-323.099	704.217	-0.104	0.272
-322.085	-93.098	0.277	-0.076
-321.070	250.871	0.112	-0.189
-320.056	53.021	-0.280	0.265
-319.041	800.000	0.069	0.287
-318.026	-34.739	0.249	-0.135
-317.012	-101.027	-0.052	0.013
-315.997	35.952	-0.053	-0.046
-314.983	95.681	-0.073	0.082
-313.968	800.000	0.046	-0.131
-312.953	86.664	0.214	-0.233
-311.939	268.697	0.079	0.136
-310.924	-87.609	-0.323	0.097
-309.910	-55.915	0.090	-0.040
-308.895	201.039	-0.162	0.246
-307.880	-53.609	-0.313	0.141
-306.866	-36.240	0.106	-0.057
-305.851	-3.143	0.158	-0.109
-304.837	-200.000	0.052	-0.305
-303.822	-200.000	-0.006	0.093
-302.807	-187.955	-0.264	-0.003
-301.793	23.608	0.108	0.088
-300.778	35.409	-0.190	0.165
-299.764	512.267	0.103	0.237
-298.749	167.533	-0.017	0.024
-297.735	297.042	-0.141	0.255
-296.720	-200.000	-0.075	0.345
-295.705	397.301	0.107	-0.220
-294.691	800.000	-0.105	0.289
-293.676	-200.000	0.021	0.317
-292.662	-21.690	-0.120	0.072
-291.647	133.725	0.154	-0.197
-290.632	-53.107	0.035	-0.016
-289.618	-161.943	0.111	0.006
-288.603	92.682	0.081	0.090
-287.589	58.117	-0.199	0.192
-286.574	-108.599	-0.188	0.040
-285.559	795.406	-0.030	-0.082
-284.545	-125.909	0.071	-0.011
-283.530	-200.000	-0.331	0.000
-282.516	612.340	-0.063	-0.156
-281.501	-200.000	0.064	0.289
-280.486	-82.650	0.251	0.080
-279.472	800.000	0.053	-0.194
-278.457	-200.000	0.040	-0.204
-277.443	-44.321	0.183	-0.091
-276.428	80.695	-0.121	0.129
-275.413	-76.693	0.442	-0.153
-274.399	-101.261	0.102	0.025
-273.384	-24.715	-0.152	0.089
-272.370	-48.404	0.228	-0.109
-271.355	2.116	0.175	-0.125
-270.340	-102.890	-0.202	-0.048
-269.326	47.421	0.197	0.181
-268.311	141.741	0.141	0.184
-267.297	800.000	0.087	0.286
-266.282	329.951	0.048	-0.091
-265.267	-117.245	-0.231	-0.042
-264.253	-152.348	0.139	-0.010
-263.238	421.290	0.162	0.343
-262.224	-200.000	-0.030	0.344
-261.209	315.574	0.206	0.384
-260.195	-134.837	0.222	-0.027
-259.180	62.145	0.125	-0.123
-258.165	137.066	0.228	-0.294
-257.151	432.673	0.072	0.154
-256.136	-11.499	0.292	0.190
-255.122	-143.787	-0.202	0.019
-254.107	-14.214	0.316	0.201
-253.092	-200.000	-0.006	0.062
-252.078	97.495	0.218	-0.248
-251.063	-162.996	0.375	-0.018
-250.049	1.926	0.208	-0.148
-249.034	-200.000	-0.010	-0.058
-248.019	-64.841	-0.308	0.123
-247.005	-64.705	0.253	0.101
-245.990	-200.000	0.041	-0.257
-244.976	434.703	-0.059	0.127
-243.961	131.679	0.105	-0.134
-242.946	680.424	-0.030	0.078
-241.932	33.626	0.114	0.098
-240.917	800.000	-0.062	-0.196
-239.903	-200.000	0.012	-0.286
-238.888	185.992	0.185	-0.272
-237.873	39.634	-0.125	-0.111
-236.859	-200.000	0.017	-0.211
-235.844	800.000	-0.030	0.112
-234.830	-106.997	-0.278	-0.061
-233.815	141.623	0.017	0.023
-232.800	-143.052	-0.134	0.013
-231.786	-200.000	0.027	0.214
-230.771	137.173	-0.065	0.084
-229.757	-110.207	-0.329	0.068
-228.742	-200.000	-0.027	-0.306
-227.727	-200.000	0.002	-0.350
-226.713	800.000	-0.065	0.204
-225.698	368.599	0.066	0.131
-224.684	23.025	0.123	-0.099
-223.669	-129.571	0.268	0.037
-222.655	-89.653	-0.168	-0.049
-221.640	-130.333	0.210	0.028
-220.625	-27.652	-0.279	-0.160
-219.611	192.087	-0.082	0.123
-218.596	-190.851	-0.281	-0.003
-217.582	-49.180	0.199	-0.094
-216.567	-95.853	0.096	-0.025
-215.552	213.916	0.087	-0.135
-214.538	-160.130	-0.134	0.007
-213.523	189.679	0.095	-0.140
-212.509	-200.000	-0.013	-0.087
-211.494	-100.217	-0.409	0.100
-210.479	-200.000	0.058	0.249
-209.465	119.111	-0.115	0.140
-208.450	-200.000	0.012	0.133
-207.436	-200.000	0.017	0.259
-206.421	800.000	0.093	0.370
-205.406	-200.000	-0.032	0.146
-204.392	-113.278	0.113	-0.022
-203.377	-106.409	-0.263	-0.058
-202.363	409.224	0.104	0.218
-201.348	68.203	-0.167	0.168
-200.333	-122.695	-0.046	0.007
-199.319	-49.485	-0.253	-0.119
-198.304	639.115	0.085	0.214
-197.290	-22.758	-0.142	0.084
-196.275	800.000	0.024	-0.105
-195.260	-200.000	0.014	0.145
-194.246	-44.907	0.143	0.070
-193.231	36.980	-0.164	-0.143
-192.217	-35.625	0.301	0.161
-191.202	-200.000	-0.067	0.314
-190.187	110.811	-0.100	0.119
-189.173	-101.847	0.084	0.020
-188.158	422.233	0.115	-0.243
-187.144	800.000	-0.032	-0.092
-186.129	473.501	-0.122	-0.270
-185.114	291.474	-0.046	0.082
-184.100	-47.563	0.472	-0.226
-183.085	-200.000	-0.013	0.170
-182.071	-10.480	-0.182	0.118
-181.056	-125.329	0.303	0.046
-180.042	-162.508	0.228	-0.011
-179.027	-52.323	0.224	-0.102
-178.012	362.014	0.156	0.307
-176.998	147.512	-0.171	0.227
-175.983	12.212	-0.370	0.280
-174.969	-35.620	0.201	-0.108
-173.954	-8.169	0.209	-0.138
-172.939	20.674	-0.174	0.138
-171.925	22.215	0.230	-0.185
-170.910	-33.719	0.064	0.035
-169.896	800.000	-0.035	-0.136
-168.881	28.272	-0.113	0.094
-167.866	800.000	0.023	-0.072
-166.852	-52.621	0.073	-0.033
-165.837	-22.033	-0.408	0.244
-164.823	-3.711	0.058	-0.040
-163.808	-10.784	-0.299	0.194
-162.793	-61.717	-0.262	-0.108
-161.779	-200.000	-0.031	-0.241
-160.764	-15.346	-0.302	0.190
-159.750	128.630	0.086	0.108
-158.735	-126.229	-0.216	-0.032
-157.720	-74.206	0.099	-0.035
-156.706	-100.237	-0.011	-0.003
-155.691	-44.734	0.187	-0.092
-154.677	-43.560	0.286	-0.142
-153.662	-200.000	-0.024	-0.184
-152.647	-200.000	0.001	0.336
-151.633	-118.921	-0.179	-0.031
-150.618	-144.896	0.123	-0.011
-149.604	-113.098	0.274	-0.053
-148.589	800.000	-0.083	-0.271
-147.574	31.086	-0.156	0.132
-146.560	-16.904	-0.102	-0.063
-145.545	-50.467	0.096	0.045
-144.531	-120.477	0.104	-0.017
-143.516	-33.472	-0.125	-0.068
-142.502	393.360	-0.060	0.122
-141.487	-48.352	0.229	0.108
-140.472	-110.364	-0.333	-0.068
-139.458	552.201	-0.038	-0.089
-138.443	-147.611	0.320	0.026
-137.429	-10.653	0.133	0.086
-136.414	-60.583	0.115	-0.048
-135.399	-50.588	-0.102	-0.047
-134.385	385.708	0.062	0.126
-133.370	714.756	-0.056	-0.147
-132.356	-171.558	-0.195	-0.006
-131.341	101.081	-0.096	0.109
-130.326	-200.000	-0.016	-0.317
-129.312	-11.252	0.235	-0.152
-128.297	553.303	0.087	-0.206
-127.283	548.258	-0.106	0.250
-126.268	24.139	0.093	0.075
-125.253	-81.519	0.196	0.063
-124.239	-200.000	-0.010	0.156
-123.224	-79.735	0.209	-0.069
-122.210	698.345	0.111	0.287
