DTS Sentinel unit serial number:	SN413079Multiplexer serial number:	ORYXHardware model number:	OX4-SRSoftware version number:	ORYX F/W v4.00 Oryx Data Collector v3.7.2.0data status	okinstallation	princeton_trtdifferential loss correction	single-endedforward channel	channel 1reverse channel	N/Adate	2019/09/11time	09:28:11forward acquisition time	60.00reverse acquisition time	0.00gamma	496.2192k internal	0.2306k external	0.2306temperature offset calibration	0.9950default loss term (dB/km)	0.3790temperature slope calibration	1.0000multiplexer offset coefficient	1.0000multiplexer slope coefficient	1.0000fibre end	0.00T internal ref (°C)	34.66T ext. ref 1 (°C)	0.10T ext. ref 2 (°C)	31.37length (m)	temperature (°C)	Stokes	anti-Stokes-747.200	-96.272	-0.420	0.113
-746.185	-200.000	-0.020	0.292
-745.171	257.022	0.133	-0.233
-744.156	248.088	-0.145	-0.249
-743.142	-173.696	-0.326	-0.010
-742.127	-200.000	-0.048	0.263
-741.112	-90.702	0.209	-0.061
-740.098	-124.802	-0.302	0.047
-739.083	-127.252	0.066	-0.010
-738.069	113.736	0.338	0.418
-737.054	-200.000	0.036	0.313
-736.039	-166.493	-0.086	0.004
-735.025	-147.055	0.189	-0.016
-734.010	-139.511	-0.219	-0.024
-732.996	28.430	-0.225	0.194
-731.981	-165.467	0.065	0.003
-730.966	-176.104	-0.153	-0.004
-729.952	-43.775	-0.269	0.138
-728.937	-52.969	-0.322	0.151
-727.923	370.968	-0.064	-0.133
-726.908	11.412	-0.296	-0.230
-725.894	-159.945	0.106	0.006
-724.879	-200.000	-0.043	-0.334
-723.864	800.000	-0.018	-0.078
-722.850	324.854	-0.032	0.063
-721.835	-44.919	0.086	0.043
-720.821	55.364	-0.131	0.129
-719.806	-144.732	-0.225	-0.021
-718.791	-70.588	-0.356	-0.137
-717.777	66.522	0.066	0.068
-716.762	-200.000	0.051	0.282
-715.748	-22.752	-0.119	0.073
-714.733	-200.000	-0.023	0.123
-713.718	-108.043	-0.194	0.043
-712.704	-67.008	0.120	-0.048
-711.689	23.715	0.082	0.069
-710.675	-77.065	0.070	-0.025
-709.660	-150.435	-0.425	0.033
-708.645	-3.136	-0.089	-0.063
-707.631	493.416	0.055	0.129
-706.616	-139.977	-0.177	-0.019
-705.602	20.645	-0.071	0.058
-704.587	60.337	0.233	0.234
-703.572	251.076	-0.115	0.199
-702.558	70.545	0.051	0.053
-701.543	-22.378	0.336	-0.207
-700.529	-14.882	-0.095	0.062
-699.514	243.440	0.227	-0.386
-698.499	-200.000	0.023	-0.172
-697.485	-81.426	0.112	-0.037
-696.470	134.794	-0.135	0.179
-695.456	-73.239	0.219	0.081
-694.441	-76.948	0.312	0.111
-693.426	166.448	-0.082	0.118
-692.412	23.452	0.185	-0.154
-691.397	-165.332	-0.161	-0.007
-690.383	-200.000	-0.020	0.223
-689.368	50.678	-0.095	-0.091
-688.354	-200.000	0.017	-0.414
-687.339	66.950	-0.115	0.119
-686.324	-200.000	0.003	0.374
-685.310	-60.061	0.173	0.075
-684.295	800.000	-0.103	0.376
-683.281	-44.208	0.305	0.155
-682.266	-200.000	0.018	0.080
-681.251	376.810	0.086	0.178
-680.237	117.311	0.056	0.070
-679.222	-200.000	-0.024	0.278
-678.208	-100.492	-0.278	0.070
-677.193	75.340	-0.051	-0.054
-676.178	-39.797	-0.215	-0.114
-675.164	-31.141	-0.117	-0.067
-674.149	54.785	0.166	-0.163
-673.135	-106.038	0.093	0.021
-672.120	208.293	-0.027	0.042
-671.105	-52.762	0.195	0.091
-670.091	143.426	0.059	-0.079
-669.076	61.263	0.220	0.222
-668.062	11.219	-0.249	0.194
-667.047	245.347	0.080	0.137
-666.032	-32.289	0.161	0.091
-665.018	800.000	0.073	-0.243
-664.003	107.506	-0.113	-0.137
-662.989	-131.161	0.106	-0.014
-661.974	149.705	-0.135	0.186
-660.959	-141.317	0.263	0.027
-659.945	800.000	-0.092	0.310
-658.930	-200.000	-0.025	-0.240
-657.916	639.462	-0.130	-0.334
-656.901	228.514	-0.209	0.345
-655.886	10.726	0.047	0.036
-654.872	-200.000	0.002	0.096
-653.857	-128.296	0.164	-0.024
-652.843	-42.253	-0.114	-0.059
-651.828	-82.684	-0.221	0.073
-650.814	-26.640	-0.138	-0.082
-649.799	484.836	0.060	0.139
-648.784	-67.412	0.152	-0.060
-647.770	128.412	0.097	0.125
-646.755	-200.000	-0.021	-0.323
-645.741	800.000	-0.025	-0.106
-644.726	-200.000	-0.004	-0.231
-643.711	-77.766	0.218	0.076
-642.697	-152.520	-0.234	0.017
-641.682	800.000	-0.086	-0.271
-640.668	-200.000	0.057	0.453
-639.653	-23.074	-0.191	0.116
-638.638	-200.000	0.035	-0.279
-637.624	-64.616	-0.252	0.103
-636.609	-141.176	0.344	0.036
-635.595	-200.000	-0.001	0.060
-634.580	-92.300	0.067	-0.019
-633.565	800.000	-0.063	0.180
-632.551	-200.000	0.051	-0.231
-631.536	-81.827	-0.189	0.063
-630.522	-37.748	0.255	0.137
-629.507	-63.297	0.259	-0.108
-628.492	-56.509	-0.209	0.094
-627.478	-60.358	-0.272	0.117
-626.463	479.093	-0.058	-0.133
-625.449	-200.000	-0.005	0.108
-624.434	110.400	0.091	-0.111
-623.419	630.801	-0.019	0.049
-622.405	-42.843	0.048	0.025
-621.390	22.075	-0.194	0.160
-620.376	-174.387	0.110	0.003
-619.361	800.000	0.083	0.264
-618.346	250.529	-0.167	0.287
-617.332	-200.000	-0.071	0.362
-616.317	152.783	0.104	-0.143
-615.303	800.000	-0.061	0.215
-614.288	41.328	0.120	-0.110
-613.273	-200.000	-0.008	-0.144
-612.259	234.323	0.034	0.056
-611.244	113.762	0.056	0.069
-610.230	-200.000	0.011	-0.143
-609.215	-145.674	-0.350	0.032
-608.201	800.000	-0.067	-0.258
-607.186	681.233	0.055	-0.146
-606.171	126.488	-0.278	0.356
-605.157	-151.912	0.278	-0.021
-604.142	151.896	0.190	-0.262
-603.128	304.330	-0.143	-0.269
-602.113	64.568	0.147	0.150
-601.098	800.000	-0.060	-0.173
-600.084	-200.000	-0.031	0.259
-599.069	36.245	-0.331	0.295
-598.055	-200.000	0.046	-0.306
-597.040	-88.552	-0.043	-0.013
-596.025	-200.000	0.002	-0.083
-595.011	-77.642	-0.032	0.011
-593.996	-8.334	0.437	-0.297
-592.982	156.245	0.197	-0.274
-591.967	800.000	-0.107	-0.333
-590.952	-200.000	-0.018	-0.408
-589.938	-72.540	0.217	0.081
-588.923	-150.244	-0.155	-0.012
-587.909	-200.000	-0.033	-0.166
-586.894	650.218	0.023	0.061
-585.879	-0.984	-0.046	0.033
-584.865	-68.899	0.197	-0.077
-583.850	-31.421	-0.103	0.058
-582.836	-137.079	-0.318	0.037
-581.821	7.269	0.201	-0.152
-580.806	-126.226	0.201	0.030
-579.792	-170.942	-0.213	-0.007
-578.777	800.000	0.062	-0.230
-577.763	-116.153	-0.115	0.022
-576.748	221.572	-0.233	0.378
-575.733	-200.000	0.017	-0.249
-574.719	324.353	-0.090	-0.173
-573.704	39.540	-0.251	-0.227
-572.690	-200.000	-0.012	-0.201
-571.675	63.275	-0.026	0.027
-570.661	-147.592	-0.385	-0.033
-569.646	287.504	-0.206	0.377
-568.631	-200.000	0.026	0.254
-567.617	-43.130	-0.177	-0.091
-566.602	695.101	0.047	0.125
-565.588	-36.574	-0.186	0.101
-564.573	-200.000	0.044	0.225
-563.558	800.000	-0.055	-0.172
-562.544	47.668	-0.228	-0.215
-561.529	-192.047	0.052	-0.001
-560.515	-200.000	-0.030	0.254
-559.500	800.000	-0.063	-0.187
-558.485	88.802	-0.280	-0.314
-557.471	24.718	0.253	-0.212
-556.456	147.301	-0.153	0.209
-555.442	399.779	0.156	-0.331
-554.427	-102.272	-0.155	-0.038
-553.412	712.880	-0.027	0.072
-552.398	30.453	0.168	-0.145
-551.383	-83.092	0.153	-0.050
-550.369	39.586	-0.244	0.221
-549.354	-88.701	0.160	0.048
-548.339	-200.000	0.068	-0.408
-547.325	-23.316	0.143	-0.087
-546.310	-13.875	0.078	0.051
-545.296	219.740	-0.012	0.020
-544.281	129.631	-0.168	-0.216
-543.266	-100.440	-0.260	0.065
-542.252	-27.431	-0.143	-0.084
-541.237	800.000	0.058	-0.232
-540.223	800.000	-0.021	0.078
-539.208	101.446	0.076	0.089
-538.193	-106.009	-0.336	0.076
-537.179	-95.240	0.105	0.028
-536.164	-200.000	-0.010	-0.397
-535.150	-85.448	-0.205	0.065
-534.135	-200.000	-0.005	-0.273
-533.121	-120.310	-0.006	0.001
-532.106	-152.048	0.221	0.016
-531.091	73.398	-0.117	-0.124
-530.077	-143.631	-0.225	0.022
-529.062	24.531	0.330	-0.276
-528.048	427.174	0.044	0.095
-527.033	82.554	0.340	0.373
-526.018	-6.207	-0.136	0.094
-525.004	800.000	-0.031	-0.120
-523.989	-45.365	0.231	-0.116
-522.975	800.000	-0.022	-0.068
-521.960	-200.000	-0.009	0.141
-520.945	-26.707	-0.260	0.153
-519.931	20.150	0.284	0.231
-518.916	800.000	0.096	-0.277
-517.902	-177.279	0.194	-0.005
-516.887	-17.053	0.023	0.014
-515.872	162.625	0.170	-0.241
-514.858	-17.246	0.425	0.270
-513.843	432.184	-0.115	0.252
-512.829	-200.000	0.052	-0.458
-511.814	146.094	-0.019	-0.026
-510.799	149.861	0.027	-0.037
-509.785	35.367	0.124	-0.110
-508.770	-91.536	0.227	-0.065
-507.756	133.238	-0.101	-0.132
-506.741	-200.000	0.027	0.190
-505.726	283.204	-0.134	-0.242
-504.712	800.000	0.054	0.219
-503.697	643.997	-0.084	0.216
-502.683	-200.000	-0.048	0.252
-501.668	800.000	0.062	0.176
-500.653	-65.420	-0.531	-0.215
-499.639	173.246	0.093	0.134
-498.624	-178.029	0.307	0.007
-497.610	301.415	0.146	0.272
-496.595	-200.000	0.022	-0.353
-495.581	-176.887	0.311	0.008
-494.566	72.137	-0.158	-0.166
-493.551	-20.188	-0.267	0.165
-492.537	-45.450	0.191	0.095
-491.522	-200.000	-0.036	-0.432
-490.508	242.313	-0.158	0.266
-489.493	8.982	-0.117	0.089
-488.478	-200.000	-0.056	-0.338
-487.464	682.081	-0.097	-0.255
-486.449	-54.199	-0.210	0.096
-485.435	-148.424	0.107	0.009
-484.420	-200.000	0.000	0.055
-483.405	22.308	-0.174	0.143
-482.391	236.765	-0.138	0.231
-481.376	-71.169	-0.259	-0.098
-480.362	75.388	-0.276	-0.293
-479.347	-125.848	-0.171	0.026
-478.332	-55.345	-0.531	0.240
-477.318	-99.065	-0.181	-0.046
-476.303	-154.107	-0.132	0.009
-475.289	57.138	-0.170	0.167
-474.274	800.000	0.121	-0.519
-473.259	-57.906	-0.205	0.090
-472.245	-200.000	-0.022	0.203
-471.230	-156.468	-0.350	-0.022
-470.216	597.560	-0.084	0.209
-469.201	180.949	-0.060	0.088
-468.186	178.868	0.176	0.259
-467.172	-15.624	0.250	-0.161
-466.157	475.688	-0.189	-0.430
-465.143	-60.940	0.120	-0.051
-464.128	248.798	0.069	0.117
-463.113	258.098	-0.119	-0.206
-462.099	-200.000	-0.015	-0.158
-461.084	-162.694	-0.145	0.007
-460.070	294.013	0.081	0.148
-459.055	148.114	-0.218	0.296
-458.040	16.787	-0.063	0.050
-457.026	183.559	0.135	-0.200
-456.011	-31.641	0.174	-0.098
-454.997	-57.277	-0.110	0.049
-453.982	-200.000	0.029	0.190
-452.968	-200.000	-0.028	-0.131
-451.953	-87.600	-0.374	-0.114
-450.938	-78.387	0.081	0.028
-449.924	515.800	0.149	-0.350
-448.909	-78.996	-0.209	0.071
-447.895	-200.000	-0.068	0.391
-446.880	-200.000	-0.012	-0.086
-445.865	0.947	-0.241	-0.174
-444.851	60.592	-0.164	-0.163
-443.836	114.943	0.120	0.148
-442.822	-200.000	0.017	0.170
-441.807	-200.000	-0.044	0.308
-440.792	204.182	-0.100	-0.155
-439.778	-200.000	0.010	-0.315
-438.763	-26.149	0.142	-0.084
-437.749	-122.424	-0.438	-0.072
-436.734	114.439	0.337	-0.413
-435.719	370.831	0.151	-0.308
-434.705	-200.000	-0.021	0.253
-433.690	576.014	0.047	0.116
-432.676	-148.824	0.377	-0.031
-431.661	-68.535	0.190	-0.074
-430.646	181.869	0.109	0.162
-429.632	-25.800	-0.076	-0.045
-428.617	-145.906	0.190	0.017
-427.603	-54.076	-0.167	-0.076
-426.588	71.033	0.149	-0.155
-425.573	66.854	0.127	-0.130
-424.559	-38.831	-0.332	0.176
-423.544	481.913	-0.062	-0.142
-422.530	-108.926	-0.132	0.028
-421.515	-200.000	0.055	0.257
-420.500	14.824	0.167	0.131
-419.486	89.128	-0.088	-0.098
-418.471	-54.917	-0.249	0.113
-417.457	-69.929	0.285	-0.109
-416.442	-43.911	-0.064	-0.032
-415.428	-200.000	-0.064	-0.330
-414.413	-200.000	-0.011	-0.335
-413.398	163.328	-0.208	0.293
-412.384	-200.000	0.024	-0.239
-411.369	-75.967	0.073	-0.026
-410.355	349.372	0.060	0.119
-409.340	-121.612	0.411	-0.068
-408.325	62.314	0.160	-0.161
-407.311	-39.417	-0.052	-0.027
-406.296	-200.000	0.043	-0.197
-405.282	469.535	-0.062	0.139
-404.267	525.891	0.100	-0.237
-403.252	674.221	0.219	0.571
-402.238	-52.180	-0.243	0.113
-401.223	-81.386	-0.251	-0.083
-400.209	-63.909	0.156	0.064
-399.194	800.000	0.077	0.287
-398.179	-9.276	0.227	-0.152
-397.165	-200.000	-0.006	-0.056
-396.150	-200.000	-0.049	-0.243
-395.136	358.544	0.153	-0.307
-394.121	-200.000	-0.004	-0.180
-393.106	800.000	0.065	0.182
-392.092	-25.028	-0.130	-0.077
-391.077	390.804	0.078	0.162
-390.063	-200.000	0.003	0.079
-389.048	-85.902	0.159	0.049
-388.033	30.851	0.145	0.124
-387.019	-46.291	0.184	0.091
-386.004	-86.638	-0.278	0.085
-384.990	-200.000	-0.003	0.090
-383.975	136.973	0.193	0.253
-382.960	-92.565	0.127	-0.036
-381.946	-176.853	0.236	0.006
-380.931	601.333	0.070	0.174
-379.917	225.496	-0.079	0.128
-378.902	-200.000	-0.024	-0.186
-377.888	-33.793	0.429	-0.237
-376.873	549.412	-0.067	0.160
-375.858	-118.092	0.112	-0.020
-374.844	-36.595	0.031	0.017
-373.829	-93.825	0.139	0.039
-372.815	-74.639	-0.262	0.095
-371.800	-79.218	0.204	0.069
-370.785	-70.297	0.227	-0.086
-369.771	-65.868	0.132	0.053
-368.756	102.495	0.139	-0.163
-367.742	-3.362	-0.279	-0.195
-366.727	130.095	-0.097	0.125
-365.712	-138.128	-0.210	0.023
-364.698	-8.233	0.216	-0.146
-363.683	-200.000	-0.032	-0.189
-362.669	800.000	-0.044	-0.173
-361.654	-16.180	0.204	-0.130
-360.639	-89.223	-0.184	-0.055
-359.625	-25.539	0.165	0.098
-358.610	-88.722	0.236	-0.070
-357.596	-95.117	0.243	-0.066
-356.581	717.017	-0.076	-0.202
-355.566	-181.739	-0.129	-0.002
-354.552	-154.541	-0.740	0.050
-353.537	-48.891	0.173	-0.083
-352.523	-76.119	-0.244	-0.086
-351.508	800.000	0.055	0.204
-350.493	-200.000	0.042	0.212
-349.479	800.000	-0.085	0.241
-348.464	-200.000	-0.049	0.267
-347.450	800.000	-0.022	-0.076
-346.435	-121.010	0.423	0.071
-345.420	630.589	-0.094	-0.239
-344.406	-82.558	-0.276	0.090
-343.391	-120.597	-0.035	-0.006
-342.377	800.000	0.021	0.064
-341.362	-42.242	-0.054	-0.028
-340.348	46.745	-0.104	0.096
-339.333	-200.000	0.046	0.210
-338.318	-200.000	-0.009	0.129
-337.304	154.029	-0.046	0.064
-336.289	-51.525	0.123	-0.058
-335.275	-139.938	0.266	-0.028
-334.260	63.198	0.169	0.169
-333.245	136.949	-0.110	0.143
-332.231	-200.000	0.022	-0.162
-331.216	118.778	-0.191	0.236
-330.202	-164.746	-0.265	-0.012
-329.187	-17.483	-0.280	-0.176
-328.172	800.000	-0.087	-0.380
-327.158	67.591	-0.211	-0.216
-326.143	-200.000	0.012	0.244
-325.129	-134.732	-0.335	0.041
-324.114	-200.000	0.050	0.333
-323.099	-37.615	0.155	0.082
-322.085	43.481	0.077	0.070
-321.070	27.149	0.279	0.235
-320.056	6.608	-0.398	0.296
-319.041	239.319	0.101	-0.169
-318.026	-200.000	-0.042	0.287
-317.012	493.048	0.119	0.272
-315.997	-106.659	-0.126	0.028
-314.983	800.000	0.052	0.146
-313.968	-174.601	0.253	0.007
-312.953	-200.000	0.027	-0.152
-311.939	-200.000	-0.045	0.287
-310.924	-61.625	0.279	0.117
-309.910	-166.616	0.131	0.005
-308.895	125.199	-0.056	0.071
-307.880	173.203	0.050	-0.073
-306.866	-200.000	0.004	-0.041
-305.851	161.636	-0.082	-0.115
-304.837	-120.778	-0.259	-0.044
-303.822	-50.898	0.234	-0.110
-302.807	132.612	0.204	-0.263
-301.793	-200.000	0.008	0.066
-300.778	93.596	-0.091	0.103
-299.764	-70.012	-0.228	-0.087
-298.749	165.541	-0.051	0.072
-297.735	85.244	0.145	-0.159
-296.720	-200.000	0.060	0.317
-295.705	-200.000	0.091	0.444
-294.691	800.000	0.128	-0.402
-293.676	-103.705	-0.216	-0.051
-292.662	220.582	0.051	-0.082
-291.647	-93.110	-0.284	0.079
-290.632	82.152	0.219	0.237
-289.618	48.285	0.099	0.093
-288.603	180.805	-0.123	-0.181
-287.589	-59.467	0.095	-0.041
-286.574	315.398	0.056	-0.106
-285.559	443.203	0.078	0.171
-284.545	-200.000	0.030	0.253
-283.530	45.449	0.104	0.096
-282.516	800.000	-0.127	-0.397
-281.501	23.948	0.122	0.101
-280.486	-80.944	-0.454	-0.150
-279.472	48.605	-0.083	0.078
-278.457	289.841	0.149	0.271
-277.443	66.567	0.268	-0.272
-276.428	68.286	0.213	-0.218
-275.413	800.000	0.074	0.208
-274.399	-200.000	-0.007	-0.042
-273.384	475.684	0.067	-0.150
-272.370	-173.574	-0.157	-0.005
-271.355	-137.232	-0.270	-0.031
-270.340	713.971	0.055	-0.147
-269.326	-122.751	0.073	0.012
-268.311	-194.852	0.294	0.002
-267.297	798.660	-0.088	-0.243
-266.282	255.587	-0.224	0.384
-265.267	-200.000	-0.048	0.376
-264.253	146.240	-0.119	0.160
-263.238	-3.522	-0.360	-0.250
-262.224	168.366	0.123	0.175
-261.209	-71.798	0.291	0.108
-260.195	55.901	0.278	-0.269
-259.180	719.945	0.060	0.158
-258.165	-111.617	0.318	0.064
-257.151	34.781	-0.249	-0.217
-256.136	-78.433	-0.142	0.049
-255.122	543.655	0.052	0.124
-254.107	800.000	0.042	-0.163
-253.092	317.596	-0.079	0.150
-252.078	377.148	0.067	-0.136
-251.063	-190.899	-0.164	0.002
-250.049	-73.966	0.218	0.079
-249.034	51.345	0.102	0.097
-248.019	-76.968	-0.558	-0.195
-247.005	-96.011	-0.055	0.015
-245.990	17.158	0.102	0.081
-244.976	-85.306	0.174	0.054
-243.961	-133.567	0.209	-0.026
-242.946	-102.605	-0.094	0.023
-241.932	199.527	0.270	0.414
-240.917	-200.000	-0.025	0.192
-239.903	-87.555	0.108	-0.032
-238.888	-200.000	0.029	-0.330
-237.873	275.924	0.198	0.350
-236.859	-105.173	-0.036	-0.008
-235.844	-127.284	0.156	0.023
-234.830	-103.884	0.151	0.035
-233.815	-35.015	0.217	0.118
-232.800	800.000	0.027	-0.097
-231.786	-98.265	-0.245	0.063
-230.771	-200.000	-0.010	-0.088
-229.757	143.885	-0.145	-0.192
-228.742	5.472	0.231	-0.170
-227.727	-200.000	-0.011	0.269
-226.713	-200.000	-0.016	0.381
-225.698	74.293	-0.124	0.130
-224.684	276.885	-0.033	0.058
-223.669	-157.273	-0.098	-0.006
-222.655	-200.000	0.021	-0.106
-221.640	395.379	0.063	-0.130
-220.625	-123.195	-0.073	0.012
-219.611	172.172	-0.116	0.166
-218.596	800.000	-0.086	0.342
-217.582	-200.000	0.060	0.307
-216.567	501.569	0.070	-0.161
-215.552	73.541	-0.152	-0.159
-214.538	189.899	0.086	-0.129
-213.523	-75.818	0.194	-0.069
-212.509	-97.803	0.140	-0.036
-211.494	-200.000	0.014	-0.175
-210.479	800.000	0.063	0.233
-209.465	-63.540	0.285	0.117
-208.450	-73.756	0.143	0.052
-207.436	800.000	0.159	0.450
-206.421	-111.952	-0.056	-0.011
-205.406	-200.000	0.026	-0.258
-204.392	257.864	-0.161	-0.277
-203.377	-108.522	0.289	0.062
-202.363	133.391	-0.340	-0.438
-201.348	192.815	-0.095	0.143
-200.333	673.922	0.115	-0.298
-199.319	181.989	0.126	-0.184
-198.304	-122.525	-0.344	-0.056
-197.290	133.136	0.129	0.165
-196.275	159.864	-0.116	-0.161
-195.260	221.266	-0.078	-0.124
-194.246	536.651	0.168	0.396
-193.231	171.754	-0.025	-0.035
-192.217	-84.131	0.107	-0.034
-191.202	43.642	0.046	0.042
-190.187	493.101	-0.085	0.193
-189.173	4.871	0.135	0.099
-188.158	104.617	0.134	0.157
-187.144	-200.000	-0.026	-0.354
-186.129	-61.681	0.183	-0.077
-185.114	-154.521	0.127	-0.008
-184.100	7.178	0.072	0.053
-183.085	52.105	0.095	0.090
-182.071	-200.000	-0.054	-0.374
-181.056	-200.000	-0.007	-0.165
-180.042	218.146	-0.045	-0.072
-179.027	34.868	0.264	-0.230
-178.012	-156.684	0.291	-0.018
-176.998	-50.540	0.257	0.121
-175.983	281.958	-0.141	0.252
-174.969	-49.944	-0.091	0.043
-173.954	554.667	0.070	0.167
-172.939	800.000	0.006	-0.021
-171.925	13.241	-0.050	-0.038
-170.910	15.079	0.302	-0.235
-169.896	688.174	0.147	0.384
-168.881	-200.000	-0.030	0.204
-167.866	-64.549	-0.194	0.078
-166.852	216.932	-0.035	-0.056
-165.837	-128.139	-0.126	-0.018
-164.823	325.650	-0.140	0.266
-163.808	800.000	0.045	0.171
-162.793	-200.000	-0.043	-0.188
-161.779	800.000	-0.045	-0.192
-160.764	-200.000	0.043	-0.470
-159.750	153.983	0.181	0.247
-158.735	-200.000	-0.079	0.362
-157.720	-164.183	-0.190	0.009
-156.706	400.461	0.101	0.210
-155.691	-131.935	-0.291	0.038
-154.677	-197.141	-0.109	-0.001
-153.662	20.003	0.160	0.129
-152.647	-5.859	-0.183	-0.125
-151.633	800.000	-0.043	0.180
-150.618	1.305	-0.218	0.155
-149.604	278.449	-0.110	-0.195
-148.589	61.124	0.062	-0.061
-147.574	41.858	0.050	-0.045
-146.560	123.116	0.157	0.196
-145.545	-71.448	0.220	0.082
-144.531	-73.274	-0.323	-0.117
-143.516	243.651	0.073	-0.122
-142.502	-128.881	-0.348	-0.049
-141.487	-161.256	0.186	0.010
-140.472	367.334	-0.021	-0.042
-139.458	269.905	0.042	-0.073
-138.443	800.000	0.070	0.283
-137.429	-200.000	0.052	0.286
-136.414	-200.000	0.363	-0.001
-135.399	-9.900	-0.236	-0.156
-134.385	800.000	0.023	-0.069
-133.370	126.203	-0.197	0.247
-132.356	193.779	0.153	-0.231
-131.341	-124.525	0.312	0.048
-130.326	663.414	0.055	0.141
-129.312	66.296	0.048	0.048
-128.297	-87.492	0.316	0.095
-127.283	-200.000	-0.015	-0.336
-126.268	504.333	0.124	0.285
-125.253	-200.000	-0.010	-0.049
-124.239	41.458	-0.163	-0.147
-123.224	-104.741	-0.160	-0.037
-122.210	278.316	-0.115	-0.203
-121.195	-31.917	0.291	-0.162
