DTS Sentinel unit serial number:	SN413079Multiplexer serial number:	ORYXHardware model number:	OX4-SRSoftware version number:	ORYX F/W v4.00 Oryx Data Collector v3.7.2.0data status	okinstallation	princeton_trtdifferential loss correction	single-endedforward channel	channel 1reverse channel	N/Adate	2019/09/17time	08:50:35forward acquisition time	60.00reverse acquisition time	0.00gamma	496.2192k internal	0.2328k external	0.2328temperature offset calibration	0.9964default loss term (dB/km)	0.3790temperature slope calibration	1.0000multiplexer offset coefficient	1.0000multiplexer slope coefficient	1.0000fibre end	0.00T internal ref (°C)	27.87T ext. ref 1 (°C)	0.14T ext. ref 2 (°C)	23.47length (m)	temperature (°C)	Stokes	anti-Stokes-747.200	-200.000	0.028	-0.458
-746.185	38.383	-0.061	0.055
-745.171	247.705	-0.095	-0.162
-744.156	136.835	-0.215	0.283
-743.142	39.867	-0.195	-0.177
-742.127	-20.240	0.335	-0.208
-741.112	800.000	-0.108	0.308
-740.098	-75.035	0.134	0.048
-739.083	-3.341	-0.289	-0.203
-738.069	25.079	-0.145	0.121
-737.054	-3.751	0.200	-0.140
-736.039	315.287	0.099	-0.188
-735.025	8.022	0.143	0.108
-734.010	-136.228	-0.176	-0.021
-732.996	-88.367	-0.114	-0.034
-731.981	800.000	-0.122	-0.369
-730.966	0.670	-0.177	0.128
-729.952	-94.168	-0.160	-0.044
-728.937	-64.686	0.167	-0.068
-727.923	47.726	-0.122	-0.115
-726.908	-136.979	-0.175	-0.020
-725.894	800.000	-0.039	-0.124
-724.879	-133.740	0.245	0.031
-723.864	-114.695	-0.300	-0.058
-722.850	-91.603	0.150	-0.043
-721.835	66.846	0.054	0.055
-720.821	-200.000	-0.048	-0.325
-719.806	-57.080	0.224	-0.099
-718.791	2.141	-0.210	-0.153
-717.777	773.636	0.098	0.269
-716.762	-200.000	0.009	-0.176
-715.748	-148.913	-0.155	0.013
-714.733	-200.000	-0.003	-0.103
-713.718	-200.000	0.005	-0.242
-712.704	-200.000	0.040	-0.178
-711.689	-200.000	-0.014	-0.236
-710.675	-15.340	0.299	-0.193
-709.660	84.756	0.181	0.200
-708.645	-30.023	0.367	-0.211
-707.631	0.022	0.169	0.121
-706.616	-22.985	0.245	-0.148
-705.602	-70.760	0.264	0.100
-704.587	-131.234	0.251	0.034
-703.572	-192.289	0.061	-0.001
-702.558	-200.000	0.039	0.174
-701.543	-200.000	-0.021	-0.227
-700.529	376.199	-0.030	0.061
-699.514	-2.209	-0.128	-0.091
-698.499	102.327	0.180	0.212
-697.485	-78.749	0.155	0.053
-696.470	6.218	0.123	-0.092
-695.456	-200.000	0.006	0.225
-694.441	723.082	-0.061	0.163
-693.426	-124.164	-0.307	-0.048
-692.412	-200.000	0.090	0.478
-691.397	800.000	-0.033	0.107
-690.383	-63.575	-0.486	-0.201
-689.368	-38.786	-0.155	-0.082
-688.354	800.000	-0.057	-0.173
-687.339	144.877	-0.124	0.166
-686.324	-33.794	-0.199	-0.110
-685.310	519.594	-0.093	-0.220
-684.295	-105.608	-0.105	-0.024
-683.281	170.287	0.123	0.178
-682.266	295.589	0.028	-0.051
-681.251	-152.656	-0.294	0.021
-680.237	-0.380	0.159	-0.113
-679.222	650.485	-0.225	0.579
-678.208	-200.000	0.054	-0.285
-677.193	-200.000	-0.012	-0.242
-676.178	17.092	-0.317	-0.253
-675.164	-98.576	0.152	0.039
-674.149	20.759	-0.062	0.051
-673.135	-116.911	0.039	-0.007
-672.120	76.858	-0.186	0.198
-671.105	41.171	-0.042	0.038
-670.091	39.459	-0.140	0.126
-669.076	-86.369	-0.128	0.039
-668.062	-8.764	-0.127	0.085
-667.047	-13.864	0.230	0.149
-666.032	-49.603	-0.123	0.059
-665.018	-50.890	0.294	-0.139
-664.003	98.327	0.059	0.068
-662.989	86.305	0.069	-0.077
-661.974	-158.816	-0.121	-0.007
-660.959	15.861	-0.104	0.082
-659.945	183.619	0.139	0.206
-658.930	-144.634	0.227	-0.021
-657.916	-61.821	-0.267	-0.112
-656.901	-129.661	-0.172	-0.024
-655.886	-152.527	0.142	0.010
-654.872	500.240	0.074	-0.173
-653.857	220.787	0.034	-0.055
-652.843	-200.000	-0.110	-0.584
-651.828	-29.018	-0.091	0.053
-650.814	-200.000	-0.032	0.462
-649.799	-200.000	0.046	0.330
-648.784	-200.000	-0.015	-0.092
-647.770	-32.888	0.261	0.146
-646.755	-134.052	-0.251	-0.031
-645.741	33.947	-0.044	-0.038
-644.726	-113.523	0.223	0.044
-643.711	-126.645	-0.417	-0.062
-642.697	19.587	0.286	-0.231
-641.682	164.141	-0.099	-0.140
-640.668	-200.000	-0.022	0.141
-639.653	-200.000	-0.015	-0.314
-638.638	3.127	0.153	-0.112
-637.624	-80.882	0.089	0.030
-636.609	800.000	0.021	-0.064
-635.595	-200.000	0.043	-0.392
-634.580	-196.017	-0.187	-0.001
-633.565	-21.062	0.363	0.223
-632.551	800.000	-0.012	0.033
-631.536	-128.509	-0.302	0.043
-630.522	65.228	0.278	0.282
-629.507	-132.742	-0.388	-0.050
-628.492	-44.686	0.216	-0.108
-627.478	38.921	-0.242	-0.217
-626.463	-200.000	0.029	-0.279
-625.449	788.938	-0.044	0.121
-624.434	55.364	0.155	0.151
-623.419	-200.000	-0.001	-0.125
-622.405	-113.271	0.223	-0.044
-621.390	-167.118	-0.309	0.013
-620.376	-63.482	0.159	0.066
-619.361	-103.107	-0.210	0.050
-618.346	-68.183	-0.172	-0.067
-617.332	348.889	0.089	0.176
-616.317	126.885	-0.132	0.168
-615.303	-200.000	0.012	0.053
-614.288	800.000	-0.049	-0.173
-613.273	-96.243	-0.222	0.059
-612.259	183.910	-0.242	-0.359
-611.244	-93.166	-0.087	0.024
-610.230	-139.603	0.047	0.005
-609.215	-200.000	-0.023	-0.163
-608.201	-11.091	0.491	-0.324
-607.186	-200.000	0.057	-0.663
-606.171	-167.490	-0.152	0.006
-605.157	-136.253	0.223	-0.026
-604.142	-51.948	0.278	-0.129
-603.128	-107.775	-0.134	-0.029
-602.113	800.000	0.172	-0.489
-601.098	127.888	-0.119	-0.151
-600.084	49.345	0.231	-0.217
-599.069	589.642	-0.048	0.118
-598.055	800.000	-0.042	0.153
-597.040	-36.978	-0.153	-0.082
-596.025	-67.649	0.263	0.103
-595.011	27.595	-0.149	-0.125
-593.996	-137.003	0.215	0.025
-592.982	-142.973	0.425	-0.041
-591.967	-200.000	-0.007	-0.092
-590.952	-200.000	-0.038	-0.348
-589.938	-200.000	0.015	-0.164
-588.923	-149.776	0.072	0.006
-587.909	800.000	0.039	-0.148
-586.894	-200.000	0.003	-0.136
-585.879	-78.899	0.182	-0.062
-584.865	54.454	0.241	0.232
-583.850	-15.569	0.302	-0.193
-582.836	35.264	-0.037	-0.032
-581.821	-161.809	-0.245	0.012
-580.806	-200.000	0.026	0.189
-579.792	52.014	-0.245	0.233
-578.777	-130.607	-0.248	0.034
-577.763	-200.000	0.301	0.001
-576.748	-64.141	0.266	0.108
-575.733	743.365	-0.066	0.177
-574.719	642.374	0.106	-0.271
-573.704	84.228	-0.220	-0.241
-572.690	244.751	-0.126	0.212
-571.675	-163.919	0.226	0.011
-570.661	-81.002	0.194	-0.064
-569.646	-127.066	-0.147	0.022
-568.631	258.341	-0.128	-0.220
-567.617	-200.000	0.026	-0.286
-566.602	-29.808	0.328	-0.187
-565.588	41.626	0.098	-0.089
-564.573	-191.877	-0.592	0.006
-563.558	735.811	0.023	0.061
-562.544	151.870	-0.085	0.116
-561.529	6.789	-0.064	-0.047
-560.515	800.000	0.049	0.212
-559.500	-75.141	0.176	-0.063
-558.485	3.392	-0.147	-0.107
-557.471	278.368	-0.180	0.321
-556.456	7.094	0.254	-0.189
-555.442	-45.470	0.173	0.086
-554.427	99.514	0.159	0.184
-553.412	-167.534	-0.234	0.009
-552.398	51.649	-0.171	0.163
-551.383	83.129	-0.117	-0.127
-550.369	199.017	0.003	-0.005
-549.354	99.410	-0.120	-0.139
-548.339	302.094	0.081	0.149
-547.325	295.574	-0.147	0.269
-546.310	187.602	0.167	0.249
-545.296	8.782	-0.138	-0.104
-544.281	800.000	-0.093	-0.283
-543.266	-18.850	-0.205	0.128
-542.252	-158.268	0.028	-0.002
-541.237	-43.027	-0.132	-0.067
-540.223	-100.058	-0.094	0.023
-539.208	349.223	-0.189	-0.373
-538.193	-53.669	-0.156	0.071
-537.179	225.318	0.146	0.237
-536.164	-53.675	0.160	0.073
-535.150	194.794	-0.081	-0.123
-534.135	-143.720	0.229	0.022
-533.121	426.493	0.069	0.149
-532.106	77.666	-0.165	0.176
-531.091	364.193	-0.123	-0.247
-530.077	150.058	-0.073	0.099
-529.062	-45.636	-0.289	-0.143
-528.048	69.307	0.121	-0.125
-527.033	514.006	0.078	0.182
-526.018	-42.031	-0.166	0.085
-525.004	52.316	-0.279	0.266
-523.989	-200.000	0.050	-0.227
-522.975	-76.365	-0.185	-0.065
-521.960	-200.000	0.008	0.119
-520.945	5.498	-0.045	0.033
-519.931	800.000	-0.072	-0.283
-518.916	800.000	0.040	0.134
-517.902	800.000	0.035	0.118
-516.887	13.410	0.025	0.019
-515.872	-25.947	0.183	-0.108
-514.858	-27.248	0.120	-0.070
-513.843	-200.000	-0.022	0.229
-512.829	800.000	-0.053	-0.162
-511.814	-162.266	-0.244	-0.012
-510.799	-99.601	-0.061	0.015
-509.785	-120.537	-0.372	-0.063
-508.770	-120.935	0.328	-0.055
-507.756	52.197	0.135	0.129
-506.741	-138.018	-0.236	0.026
-505.726	-14.366	0.104	-0.067
-504.712	-50.728	-0.249	0.117
-503.697	-200.000	-0.054	-0.317
-502.683	-101.870	-0.210	0.051
-501.668	119.554	-0.090	0.111
-500.653	-200.000	0.017	0.459
-499.639	-3.407	0.119	-0.083
-498.624	-200.000	-0.030	-0.380
-497.610	-30.128	-0.114	-0.065
-496.595	-118.023	-0.469	-0.084
-495.581	164.086	-0.115	0.161
-494.566	-174.856	-0.169	-0.005
-493.551	148.746	0.050	0.068
-492.537	257.613	-0.011	-0.019
-491.522	-200.000	-0.027	-0.127
-490.508	-90.537	0.183	0.053
-489.493	0.478	-0.155	0.111
-488.478	464.294	-0.097	-0.217
-487.464	-6.915	-0.121	0.082
-486.449	60.516	-0.140	-0.138
-485.435	-121.763	-0.328	0.054
-484.420	800.000	0.082	-0.277
-483.405	800.000	0.092	-0.259
-482.391	-200.000	0.016	0.334
-481.376	-79.758	0.571	-0.192
-480.362	-134.975	0.255	0.031
-479.347	763.787	-0.101	0.274
-478.332	374.672	0.154	-0.313
-477.318	1.306	-0.166	-0.119
-476.303	-85.713	0.254	-0.079
-475.289	-200.000	-0.014	0.124
-474.274	-93.155	-0.296	0.082
-473.259	418.956	-0.080	-0.170
-472.245	-200.000	-0.014	-0.091
-471.230	-82.399	0.249	0.081
-470.216	-133.288	-0.525	0.066
-469.201	-65.032	-0.412	-0.166
-468.186	-200.000	-0.003	-0.043
-467.172	109.774	-0.407	0.487
-466.157	-52.775	0.196	0.090
-465.143	59.288	-0.042	0.041
-464.128	-59.562	-0.060	-0.026
-463.113	282.321	0.083	0.148
-462.099	17.770	0.303	0.240
-461.084	329.019	-0.128	0.244
-460.070	216.573	-0.115	0.183
-459.055	51.130	0.098	-0.092
-458.040	-140.093	-0.098	0.010
-457.026	152.140	0.117	-0.159
-456.011	-113.142	0.097	-0.019
-454.997	-61.439	-0.056	0.023
-453.982	-87.082	-0.110	0.033
-452.968	-200.000	0.003	0.091
-451.953	-37.039	-0.106	0.056
-450.938	800.000	-0.088	0.310
-449.924	-7.671	0.276	-0.186
-448.909	101.942	-0.049	-0.057
-447.895	148.795	0.206	-0.278
-446.880	-111.728	0.373	-0.075
-445.865	307.839	-0.017	0.031
-444.851	55.084	0.071	-0.068
-443.836	-144.989	0.414	-0.038
-442.822	-79.410	-0.104	-0.035
-441.807	-200.000	-0.096	-0.457
-440.792	800.000	0.159	-0.515
-439.778	-167.846	-0.170	-0.007
-438.763	37.326	-0.152	-0.134
-437.749	800.000	0.055	0.187
-436.734	-98.008	-0.203	-0.052
-435.719	306.846	-0.079	0.146
-434.705	-200.000	-0.016	0.108
-433.690	-200.000	0.057	0.318
-432.676	40.058	0.033	0.030
-431.661	800.000	-0.027	0.104
-430.646	62.540	0.169	-0.168
-429.632	-70.452	0.197	0.074
-428.617	-200.000	0.024	0.123
-427.603	167.521	-0.126	-0.178
-426.588	-22.304	-0.189	-0.114
-425.573	-40.053	0.189	0.098
-424.559	-86.080	0.230	-0.071
-423.544	-116.168	0.383	-0.071
-422.530	415.241	-0.018	0.038
-421.515	180.011	-0.087	0.126
-420.500	2.625	-0.210	0.151
-419.486	-150.787	0.334	0.025
-418.471	-15.487	-0.031	-0.020
-417.457	-25.353	-0.367	0.216
-416.442	93.673	0.302	0.341
-415.428	-200.000	-0.010	-0.068
-414.413	-166.357	-0.365	-0.015
-413.398	64.608	0.146	0.146
-412.384	218.575	-0.172	-0.273
-411.369	-135.224	0.377	0.045
-410.355	-109.640	0.147	0.031
-409.340	-200.000	-0.001	0.062
-408.325	64.955	0.302	0.303
-407.311	103.928	-0.240	0.281
-406.296	-101.477	-0.171	-0.041
-405.282	800.000	-0.025	0.078
-404.267	100.623	0.145	0.168
-403.252	-7.038	0.153	0.103
-402.238	788.831	-0.035	0.096
-401.223	-64.724	-0.133	-0.054
-400.209	-173.982	0.198	-0.006
-399.194	49.446	0.120	0.112
-398.179	800.000	0.052	-0.216
-397.165	800.000	-0.069	0.252
-396.150	108.844	-0.312	0.370
-395.136	800.000	0.074	0.262
-394.121	31.550	0.332	-0.284
-393.106	375.530	-0.196	-0.396
-392.092	409.205	-0.057	0.121
-391.077	-133.560	0.119	0.015
-390.063	-11.253	0.277	-0.181
-389.048	-91.772	0.488	0.138
-388.033	152.797	-0.157	-0.213
-387.019	-18.278	-0.115	0.071
-386.004	-200.000	-0.104	-0.000
-384.990	63.168	-0.184	-0.183
-383.975	-200.000	-0.021	0.405
-382.960	800.000	0.066	0.191
-381.946	598.005	0.096	-0.235
-380.931	93.548	-0.162	0.183
-379.917	-87.648	0.117	-0.035
-378.902	246.725	0.021	-0.035
-377.888	9.852	-0.306	0.231
-376.873	-96.737	-0.149	-0.039
-375.858	800.000	-0.040	0.164
-374.844	-22.948	-0.367	0.220
-373.829	-149.500	0.320	-0.025
-372.815	-6.629	-0.149	0.101
-371.800	-175.245	0.281	-0.008
-370.785	-47.243	0.222	-0.107
-369.771	800.000	0.050	-0.149
-368.756	107.877	-0.101	0.120
-367.742	20.080	0.263	-0.210
-366.727	-200.000	-0.007	0.224
-365.712	-71.235	-0.256	0.096
-364.698	-175.081	-0.387	0.011
-363.683	-200.000	0.021	-0.361
-362.669	72.112	-0.122	-0.127
-361.654	97.941	-0.262	0.300
-360.639	30.841	0.058	-0.049
-359.625	122.305	0.162	0.201
-358.610	-17.664	-0.120	-0.075
-357.596	-14.210	0.090	0.058
-356.581	85.534	0.134	-0.146
-355.566	171.307	0.127	0.180
-354.552	-159.009	-0.295	-0.017
-353.537	57.221	0.206	0.200
-352.523	493.595	-0.049	0.112
-351.508	-200.000	-0.001	0.070
-350.493	800.000	-0.045	-0.176
-349.479	-156.969	0.069	0.004
-348.464	-200.000	-0.001	-0.151
-347.450	392.505	0.076	0.157
-346.435	-136.168	-0.170	-0.020
-345.420	-200.000	0.076	-0.334
-344.406	85.393	0.312	-0.340
-343.391	27.596	0.069	-0.058
-342.377	-75.311	0.023	-0.008
-341.362	800.000	0.012	-0.032
-340.348	-4.949	0.088	-0.060
-339.333	-59.070	0.339	-0.145
-338.318	-72.592	-0.258	0.095
-337.304	-131.154	0.263	-0.035
-336.289	-60.211	0.237	0.100
-335.275	-125.620	-0.344	0.052
-334.260	-200.000	0.017	0.077
-333.245	800.000	-0.048	-0.190
-332.231	-165.773	-0.166	-0.007
-331.216	-99.002	-0.137	-0.035
-330.202	3.299	0.192	0.139
-329.187	-163.110	-0.276	-0.013
-328.172	-8.964	-0.272	0.180
-327.158	-60.276	0.385	0.163
-326.143	-200.000	-0.008	0.158
-325.129	800.000	0.059	0.208
-324.114	-98.201	-0.471	0.120
-323.099	-54.856	-0.295	0.132
-322.085	-37.983	0.168	0.088
-321.070	-200.000	-0.050	-0.255
-320.056	-200.000	-0.004	0.047
-319.041	101.223	-0.064	0.074
-318.026	226.069	0.191	-0.307
-317.012	51.604	0.125	0.118
-315.997	-86.089	0.077	0.024
-314.983	143.041	0.160	0.211
-313.968	1.036	-0.259	-0.184
-312.953	149.382	0.162	0.217
-311.939	233.875	-0.129	0.211
-310.924	-56.684	-0.272	0.119
-309.910	-101.541	0.165	-0.040
-308.895	-65.799	0.204	0.081
-307.880	-169.965	-0.138	-0.005
-306.866	-200.000	0.044	0.275
-305.851	266.003	0.164	0.284
-304.837	-191.624	0.301	0.003
-303.822	-93.057	-0.106	0.029
-302.807	-157.584	-0.331	0.020
-301.793	-127.985	-0.352	0.050
-300.778	298.348	0.125	0.228
-299.764	-118.108	0.272	0.048
-298.749	-200.000	-0.033	-0.242
-297.735	-200.000	-0.025	0.280
-296.720	42.611	-0.225	0.203
-295.705	800.000	-0.041	0.156
-294.691	95.573	0.087	0.099
-293.676	624.678	0.042	-0.106
-292.662	64.032	0.028	0.028
-291.647	800.000	-0.048	0.156
-290.632	-200.000	-0.040	-0.212
-289.618	-109.556	-0.267	-0.056
-288.603	54.666	-0.119	0.113
-287.589	102.165	0.212	0.245
-286.574	270.731	0.044	0.077
-285.559	800.000	-0.055	-0.192
-284.545	203.997	-0.170	-0.261
-283.530	29.060	-0.046	-0.039
-282.516	-133.429	0.285	-0.035
-281.501	-70.767	0.227	-0.085
-280.486	800.000	-0.101	-0.428
-279.472	282.505	-0.068	0.121
-278.457	-32.296	0.224	-0.124
-277.443	352.692	0.094	0.184
-276.428	-98.948	-0.081	-0.020
-275.413	-179.174	-0.236	0.005
-274.399	-107.621	-0.106	-0.023
-273.384	-22.475	0.227	-0.136
-272.370	-44.976	0.465	-0.229
-271.355	-200.000	0.005	-0.378
-270.340	171.082	0.023	0.033
-269.326	-66.096	-0.274	-0.108
-268.311	247.106	0.012	-0.019
-267.297	251.957	-0.179	0.302
-266.282	-26.307	0.024	-0.014
-265.267	-124.943	-0.167	0.025
-264.253	-26.757	0.142	0.082
-263.238	25.273	0.156	-0.129
-262.224	-200.000	-0.013	-0.120
-261.209	800.000	-0.053	-0.192
-260.195	155.969	0.188	-0.257
-259.180	612.851	0.135	0.335
-258.165	86.651	0.248	0.271
-257.151	15.816	0.337	-0.262
-256.136	-73.816	-0.043	-0.015
-255.122	259.059	0.077	0.132
-254.107	-200.000	0.012	0.413
-253.092	27.238	0.265	-0.220
-252.078	800.000	0.048	-0.168
-251.063	83.054	0.176	-0.190
-250.049	-151.882	-0.129	0.009
-249.034	-200.000	-0.008	0.057
-248.019	-86.327	0.089	0.027
-247.005	-113.135	0.440	-0.086
-245.990	444.154	-0.038	0.081
-244.976	262.507	0.255	0.438
-243.961	-77.784	-0.210	0.072
-242.946	-44.100	-0.340	-0.169
-241.932	136.116	0.125	-0.161
-240.917	-105.642	0.111	0.025
-239.903	151.059	0.062	-0.083
-238.888	-125.211	0.112	-0.017
-237.873	-200.000	0.005	-0.167
-236.859	660.030	-0.062	0.158
-235.844	-166.549	0.191	0.008
-234.830	380.536	0.247	-0.501
-233.815	751.840	-0.061	-0.164
-232.800	66.954	-0.118	0.119
-231.786	-43.000	0.132	-0.066
-230.771	-173.716	-0.177	0.005
-229.757	525.641	-0.144	-0.334
-228.742	-50.767	-0.146	-0.068
-227.727	800.000	-0.054	0.198
-226.713	-160.643	0.121	-0.006
-225.698	49.297	0.162	0.150
-224.684	-200.000	0.028	-0.122
-223.669	-79.504	-0.275	0.092
-222.655	-200.000	0.005	0.037
-221.640	11.785	-0.239	0.181
-220.625	-165.115	-0.115	-0.005
-219.611	162.865	0.113	-0.157
-218.596	155.812	0.054	-0.074
-217.582	800.000	0.085	-0.232
-216.567	-61.545	0.054	-0.022
-215.552	-64.154	-0.088	0.035
-214.538	57.703	0.201	0.194
-213.523	-134.635	-0.148	-0.018
-212.509	-91.953	0.178	-0.050
-211.494	-180.117	-0.171	0.004
-210.479	800.000	0.040	0.136
-209.465	-64.586	0.283	0.113
-208.450	800.000	-0.109	-0.318
-207.436	21.104	-0.202	-0.162
-206.421	-200.000	0.048	0.305
-205.406	-61.586	0.225	-0.093
-204.392	36.083	-0.081	-0.070
-203.377	-59.256	-0.257	-0.109
-202.363	-62.924	-0.306	-0.125
-201.348	-101.929	0.312	-0.074
-200.333	90.737	-0.133	-0.147
-199.319	-115.042	-0.078	0.015
-198.304	122.073	0.093	-0.115
-197.290	78.262	-0.108	0.114
-196.275	187.591	-0.180	0.265
-195.260	-200.000	-0.020	-0.102
-194.246	-200.000	0.027	0.184
-193.231	-140.444	0.139	0.014
-192.217	800.000	0.039	-0.117
-191.202	-7.529	-0.278	0.186
-190.187	-200.000	-0.025	0.170
-189.173	-43.854	0.035	0.017
-188.158	291.902	-0.289	-0.519
-187.144	-139.406	0.053	0.006
-186.129	-200.000	0.047	0.229
-185.114	315.957	0.141	0.263
-184.100	38.163	-0.095	0.083
-183.085	-200.000	-0.003	-0.158
-182.071	505.772	-0.055	0.126
-181.056	-7.641	-0.093	0.062
-180.042	-200.000	0.009	0.057
-179.027	388.111	0.185	0.377
-178.012	-79.828	-0.425	-0.141
-176.998	129.513	-0.249	0.313
-175.983	105.665	0.318	0.371
-174.969	-200.000	0.017	0.223
-173.954	150.616	-0.003	-0.005
-172.939	-139.491	-0.118	-0.012
-171.925	800.000	-0.050	0.159
-170.910	2.073	-0.455	-0.324
-169.896	-28.573	0.104	0.059
-168.881	-64.548	0.382	0.153
-167.866	93.933	0.263	-0.294
-166.852	800.000	0.091	-0.373
-165.837	8.887	0.166	-0.123
-164.823	-200.000	-0.012	0.247
-163.808	60.956	-0.121	-0.118
-162.793	800.000	0.032	0.109
-161.779	-81.944	-0.232	-0.075
-160.764	-5.086	-0.225	-0.152
-159.750	-104.501	0.070	-0.016
-158.735	17.671	0.289	-0.226
-157.720	138.774	0.119	0.154
-156.706	-136.930	0.278	-0.031
-155.691	33.159	-0.151	0.129
-154.677	44.250	-0.116	-0.105
-153.662	-17.037	-0.099	0.061
-152.647	-200.000	0.017	0.197
-151.633	-61.923	0.325	0.134
-150.618	356.311	-0.284	-0.557
-149.604	-170.341	0.223	-0.008
-148.589	-32.992	-0.119	-0.065
-147.574	-61.331	0.122	0.051
-146.560	78.121	-0.167	0.175
-145.545	178.711	-0.037	-0.053
-144.531	-39.399	0.224	0.116
-143.516	-76.973	0.134	0.046
-142.502	-21.295	0.165	0.099
-141.487	-162.694	0.159	-0.008
-140.472	800.000	-0.037	0.129
-139.458	-198.609	-0.297	0.002
-138.443	800.000	0.047	0.141
-137.429	-170.385	0.103	-0.004
-136.414	95.330	0.117	-0.131
-135.399	180.594	0.061	0.088
-134.385	-200.000	0.036	0.406
-133.370	-200.000	-0.021	0.138
-132.356	38.737	-0.212	0.187
-131.341	-10.607	0.291	-0.190
-130.326	800.000	-0.032	-0.110
-129.312	136.061	-0.074	0.094
-128.297	-79.035	0.224	0.075
-127.283	800.000	-0.087	0.291
-126.268	800.000	0.053	0.157
-125.253	233.493	-0.036	0.059
-124.239	-106.398	0.386	0.085
-123.224	76.351	0.268	-0.279
-122.210	-123.732	0.251	0.039
-121.195	587.289	0.120	0.290
