DTS Sentinel unit serial number:	SN413079Multiplexer serial number:	ORYXHardware model number:	OX4-SRSoftware version number:	ORYX F/W v4.00 Oryx Data Collector v3.7.2.0data status	okinstallation	princeton_trtdifferential loss correction	single-endedforward channel	channel 1reverse channel	N/Adate	2019/09/15time	12:26:35forward acquisition time	60.00reverse acquisition time	0.00gamma	496.2192k internal	0.2301k external	0.2301temperature offset calibration	0.9986default loss term (dB/km)	0.3790temperature slope calibration	1.0000multiplexer offset coefficient	1.0000multiplexer slope coefficient	1.0000fibre end	0.00T internal ref (°C)	35.00T ext. ref 1 (°C)	5.05T ext. ref 2 (°C)	32.58length (m)	temperature (°C)	Stokes	anti-Stokes-747.200	269.674	-0.044	-0.080
-746.185	109.071	0.087	0.106
-745.171	220.962	-0.085	0.140
-744.156	-200.000	0.050	0.274
-743.142	74.343	0.072	0.077
-742.127	289.532	-0.128	-0.237
-741.112	800.000	0.064	-0.237
-740.098	401.530	0.274	0.587
-739.083	224.150	0.233	0.384
-738.069	176.133	0.090	-0.133
-737.054	42.832	-0.144	-0.134
-736.039	800.000	-0.137	-0.520
-735.025	51.910	0.192	-0.186
-734.010	-97.304	0.339	-0.090
-732.996	-200.000	-0.022	-0.180
-731.981	800.000	-0.069	0.272
-730.966	29.523	0.133	0.115
-729.952	33.451	-0.235	-0.208
-728.937	-200.000	-0.024	-0.124
-727.923	-200.000	0.019	-0.143
-726.908	-200.000	0.023	0.343
-725.894	281.876	0.070	-0.127
-724.879	466.566	0.117	-0.268
-723.864	-41.763	-0.243	-0.127
-722.850	-79.995	-0.088	0.030
-721.835	112.427	0.086	-0.106
-720.821	37.639	-0.062	-0.056
-719.806	800.000	-0.075	-0.241
-718.791	-200.000	0.001	-0.131
-717.777	-200.000	0.030	-0.465
-716.762	10.692	-0.103	-0.080
-715.748	-77.778	0.300	0.105
-714.733	-200.000	0.001	-0.028
-713.718	149.214	-0.210	0.289
-712.704	23.192	0.295	0.247
-711.689	-63.672	-0.151	0.063
-710.675	-82.691	-0.104	-0.034
-709.660	-27.575	-0.225	-0.133
-708.645	-6.225	-0.130	-0.090
-707.631	11.981	0.119	-0.093
-706.616	-49.417	0.198	0.096
-705.602	-200.000	0.020	-0.166
-704.587	-106.752	0.043	-0.010
-703.572	-41.086	-0.332	-0.175
-702.558	-200.000	-0.024	0.234
-701.543	-134.591	-0.225	-0.028
-700.529	-176.227	0.244	0.007
-699.514	-200.000	0.351	0.001
-698.499	-47.665	-0.173	0.085
-697.485	-200.000	0.015	0.234
-696.470	-79.877	-0.108	0.037
-695.456	-200.000	0.000	0.064
-694.441	800.000	0.057	-0.217
-693.426	425.778	-0.057	-0.124
-692.412	800.000	0.069	0.245
-691.397	-78.325	-0.155	0.054
-690.383	-64.280	-0.232	0.096
-689.368	-86.229	-0.168	-0.053
-688.354	-85.708	-0.231	-0.073
-687.339	394.564	-0.094	0.200
-686.324	-152.755	-0.308	0.022
-685.310	800.000	0.140	0.426
-684.295	-19.909	-0.099	-0.062
-683.281	800.000	-0.036	-0.127
-682.266	146.563	-0.182	0.248
-681.251	-200.000	0.006	-0.319
-680.237	15.034	0.114	0.090
-679.222	552.189	-0.133	0.325
-678.208	-64.745	0.302	0.125
-677.193	-103.163	-0.267	-0.064
-676.178	35.681	-0.147	0.131
-675.164	800.000	-0.049	-0.164
-674.149	198.282	0.185	-0.288
-673.135	316.969	-0.091	0.174
-672.120	-94.713	-0.094	0.026
-671.105	-200.000	0.041	-0.424
-670.091	395.359	-0.089	-0.190
-669.076	-36.423	0.203	0.111
-668.062	-136.190	-0.020	0.002
-667.047	-200.000	0.002	-0.098
-666.032	-52.707	-0.140	0.066
-665.018	-200.000	-0.047	-0.224
-664.003	79.346	-0.043	-0.047
-662.989	-40.580	-0.203	-0.107
-661.974	24.144	0.131	0.110
-660.959	-3.346	0.058	-0.041
-659.945	800.000	-0.045	-0.184
-658.930	-90.839	-0.203	-0.059
-657.916	329.780	0.139	0.271
-656.901	199.397	-0.028	0.043
-655.886	-200.000	0.032	0.257
-654.872	-80.284	-0.324	-0.110
-653.857	109.760	0.081	0.098
-652.843	3.494	0.090	0.067
-651.828	800.000	0.075	0.250
-650.814	-74.985	0.098	-0.036
-649.799	-106.188	-0.273	0.062
-648.784	-59.202	0.140	0.061
-647.770	-60.055	0.074	0.032
-646.755	-200.000	-0.006	0.093
-645.741	155.949	0.156	0.218
-644.726	-144.100	0.372	0.035
-643.711	457.332	0.155	-0.350
-642.697	22.538	0.069	0.057
-641.682	-200.000	-0.007	-0.083
-640.668	-200.000	0.005	0.073
-639.653	-145.891	0.120	0.011
-638.638	6.913	0.216	-0.163
-637.624	800.000	-0.040	-0.169
-636.609	198.536	0.107	-0.166
-635.595	65.400	0.304	0.312
-634.580	30.528	0.168	0.146
-633.565	-15.244	-0.324	0.211
-632.551	507.260	-0.024	-0.056
-631.536	800.000	0.092	-0.275
-630.522	-103.169	-0.173	-0.041
-629.507	800.000	-0.077	0.332
-628.492	-57.031	0.217	0.097
-627.478	-200.000	-0.014	-0.223
-626.463	-69.695	0.416	0.161
-625.449	59.887	-0.108	0.109
-624.434	259.939	-0.019	-0.033
-623.419	39.661	0.242	0.220
-622.405	800.000	0.042	-0.119
-621.390	19.530	0.117	-0.096
-620.376	45.115	-0.147	-0.138
-619.361	111.208	0.064	0.078
-618.346	-141.763	0.079	0.008
-617.332	-90.596	-0.179	-0.053
-616.317	409.916	-0.130	0.280
-615.303	-200.000	-0.037	0.420
-614.288	-83.459	0.143	0.046
-613.273	224.421	-0.115	-0.188
-612.259	-200.000	0.033	-0.175
-611.244	-98.230	-0.107	-0.028
-610.230	800.000	0.075	-0.311
-609.215	-115.343	0.390	0.075
-608.201	65.926	0.229	-0.235
-607.186	-200.000	-0.027	-0.446
-606.171	-200.000	-0.047	0.216
-605.157	335.664	-0.070	0.138
-604.142	679.980	-0.097	0.255
-603.128	61.823	0.050	0.050
-602.113	33.800	0.251	-0.221
-601.098	641.874	-0.079	-0.203
-600.084	-70.802	-0.312	0.119
-599.069	32.071	-0.163	0.143
-598.055	63.412	-0.173	0.176
-597.040	-38.468	-0.132	-0.071
-596.025	323.739	0.049	0.095
-595.011	-65.805	-0.244	-0.099
-593.996	-200.000	-0.025	0.140
-592.982	59.865	0.062	0.062
-591.967	203.827	-0.033	0.051
-590.952	-2.435	-0.324	0.230
-589.938	24.040	-0.152	-0.127
-588.923	-8.963	-0.056	-0.038
-587.909	-176.724	0.040	-0.001
-586.894	77.214	0.132	0.142
-585.879	424.667	-0.165	0.360
-584.865	2.534	-0.175	-0.129
-583.850	182.359	0.049	0.073
-582.836	789.292	0.090	-0.250
-581.821	741.398	0.081	-0.220
-580.806	-105.340	-0.215	0.050
-579.792	-93.812	-0.182	-0.051
-578.777	585.643	-0.073	-0.183
-577.763	156.020	0.232	0.325
-576.748	217.374	-0.196	-0.315
-575.733	-200.000	-0.052	0.290
-574.719	-200.000	-0.028	-0.245
-573.704	428.305	0.087	0.191
-572.690	800.000	0.034	0.110
-571.675	-200.000	0.059	0.363
-570.661	-100.987	-0.312	-0.078
-569.646	800.000	0.090	-0.335
-568.631	-155.875	-0.507	-0.033
-567.617	326.495	0.144	-0.278
-566.602	500.975	0.127	-0.297
-565.588	-200.000	-0.026	-0.201
-564.573	-30.601	0.149	-0.086
-563.558	131.072	0.235	0.306
-562.544	-200.000	0.003	0.298
-561.529	-124.978	-0.435	0.068
-560.515	-6.966	-0.142	0.098
-559.500	-125.562	-0.213	-0.033
-558.485	450.302	0.104	-0.232
-557.471	-111.444	-0.089	0.018
-556.456	-74.392	-0.068	-0.025
-555.442	-200.000	-0.007	0.042
-554.427	-110.615	-0.305	0.064
-553.412	-36.918	-0.205	0.111
-552.398	21.341	0.214	0.176
-551.383	-200.000	-0.016	0.198
-550.369	-200.000	0.046	-0.218
-549.354	432.825	-0.110	0.241
-548.339	-137.463	0.267	0.031
-547.325	-200.000	0.020	-0.181
-546.310	29.865	0.038	0.033
-545.296	60.688	-0.090	-0.090
-544.281	800.000	-0.056	-0.208
-543.266	-96.377	0.242	-0.065
-542.252	800.000	-0.114	0.411
-541.237	-200.000	-0.040	0.198
-540.223	61.784	-0.155	0.157
-539.208	99.808	-0.264	-0.309
-538.193	-55.938	-0.110	-0.049
-537.179	-52.923	0.175	-0.082
-536.164	694.157	-0.048	0.126
-535.150	800.000	-0.078	0.294
-534.135	-200.000	-0.002	0.051
-533.121	-98.704	0.105	-0.027
-532.106	-95.307	-0.090	-0.024
-531.091	38.231	-0.145	-0.130
-530.077	129.041	-0.055	0.070
-529.062	19.634	-0.278	0.226
-528.048	-96.097	0.024	-0.006
-527.033	-87.721	0.336	-0.102
-526.018	-200.000	-0.058	-0.331
-525.004	-157.091	0.198	0.012
-523.989	800.000	0.086	0.317
-522.975	440.580	-0.127	-0.280
-521.960	-12.487	0.035	-0.023
-520.945	-0.608	0.256	0.184
-519.931	-112.442	-0.076	0.015
-518.916	-200.000	0.036	-0.214
-517.902	97.976	0.124	0.144
-516.887	21.571	-0.105	0.086
-515.872	200.505	0.025	-0.038
-514.858	-159.251	-0.487	-0.028
-513.843	-3.491	0.166	-0.116
-512.829	191.870	-0.024	-0.037
-511.814	-47.174	0.127	0.062
-510.799	-44.064	0.218	-0.111
-509.785	-74.191	-0.156	-0.057
-508.770	-137.466	-0.252	0.029
-507.756	-114.652	0.200	-0.039
-506.741	63.736	-0.107	0.109
-505.726	122.745	0.208	0.262
-504.712	-37.825	-0.099	0.053
-503.697	-168.306	0.236	0.009
-502.683	-119.828	-0.244	0.042
-501.668	-76.754	0.139	0.049
-500.653	-200.000	-0.080	0.437
-499.639	-18.493	0.234	-0.147
-498.624	-93.815	0.616	-0.171
-497.610	267.075	-0.083	0.146
-496.595	42.501	0.150	-0.138
-495.581	55.352	-0.027	-0.026
-494.566	-200.000	0.028	-0.330
-493.551	-200.000	-0.069	-0.340
-492.537	133.520	-0.048	0.063
-491.522	-200.000	0.004	-0.173
-490.508	-113.254	-0.013	0.003
-489.493	217.247	-0.068	-0.109
-488.478	-11.327	-0.212	-0.141
-487.464	321.918	-0.052	0.101
-486.449	516.114	0.029	0.070
-485.435	-106.977	-0.267	0.060
-484.420	82.600	0.098	-0.108
-483.405	-200.000	-0.006	-0.198
-482.391	332.629	-0.105	0.204
-481.376	170.627	-0.154	-0.223
-480.362	656.136	-0.025	0.066
-479.347	-200.000	0.018	-0.150
-478.332	132.484	-0.166	0.215
-477.318	-124.304	-0.185	-0.029
-476.303	-200.000	0.012	-0.106
-475.289	-14.237	-0.152	-0.099
-474.274	-200.000	-0.005	0.137
-473.259	31.448	0.059	0.051
-472.245	-51.108	0.092	-0.043
-471.230	-83.632	-0.308	0.099
-470.216	-183.362	-0.405	0.007
-469.201	-200.000	-0.042	0.315
-468.186	112.014	0.214	0.261
-467.172	-73.835	-0.209	-0.077
-466.157	198.185	-0.118	-0.182
-465.143	-200.000	-0.059	-0.324
-464.128	800.000	0.045	0.191
-463.113	-94.753	0.069	0.019
-462.099	28.231	-0.184	-0.157
-461.084	-78.355	-0.254	-0.088
-460.070	-57.458	-0.567	0.251
-459.055	1.107	0.115	-0.083
-458.040	543.676	-0.068	0.163
-457.026	-63.722	-0.029	-0.012
-456.011	275.546	-0.248	-0.443
-454.997	-41.105	-0.019	0.010
-453.982	618.938	0.041	-0.104
-452.968	56.932	0.153	-0.150
-451.953	-66.835	0.382	-0.152
-450.938	139.571	-0.055	-0.073
-449.924	49.317	-0.061	-0.058
-448.909	261.220	-0.076	-0.132
-447.895	-26.582	0.097	-0.057
-446.880	138.195	0.069	0.092
-445.865	-45.268	0.130	0.065
-444.851	42.383	-0.071	-0.065
-443.836	-200.000	0.036	0.380
-442.822	-200.000	0.281	-0.001
-441.807	773.371	-0.026	-0.070
-440.792	-125.957	0.268	-0.041
-439.778	-31.525	0.120	0.068
-438.763	-54.143	-0.183	0.084
-437.749	-143.663	-0.148	0.014
-436.734	-67.470	-0.167	-0.066
-435.719	-200.000	0.017	-0.192
-434.705	165.592	-0.033	-0.047
-433.690	-32.458	0.266	-0.150
-432.676	800.000	0.012	0.046
-431.661	11.739	0.036	0.028
-430.646	152.005	-0.090	-0.124
-429.632	-68.100	-0.232	-0.091
-428.617	-200.000	-0.047	0.225
-427.603	-5.657	-0.181	0.125
-426.588	-94.210	0.312	-0.086
-425.573	-12.623	0.119	0.078
-424.559	253.118	-0.096	0.165
-423.544	-190.353	0.175	0.002
-422.530	-200.000	-0.026	0.339
-421.515	169.657	-0.150	-0.215
-420.500	327.689	0.055	0.105
-419.486	131.658	-0.182	-0.236
-418.471	-200.000	-0.022	0.195
-417.457	379.147	-0.058	-0.120
-416.442	-179.456	0.505	-0.011
-415.428	196.039	-0.103	0.157
-414.413	-45.254	-0.318	-0.159
-413.398	1.468	0.176	-0.127
-412.384	367.435	-0.061	0.123
-411.369	616.039	-0.084	0.212
-410.355	-39.674	-0.155	-0.081
-409.340	800.000	-0.100	0.327
-408.325	-200.000	0.013	-0.209
-407.311	-95.412	-0.138	-0.037
-406.296	-200.000	-0.022	-0.156
-405.282	240.086	0.149	-0.251
-404.267	132.685	0.231	-0.299
-403.252	11.017	0.165	-0.127
-402.238	-200.000	-0.003	0.059
-401.223	218.313	-0.098	0.157
-400.209	15.504	-0.158	-0.125
-399.194	-200.000	0.043	0.218
-398.179	-89.727	0.167	0.049
-397.165	190.283	0.033	0.050
-396.150	306.074	0.155	0.291
-395.136	47.563	0.290	0.272
-394.121	-130.792	-0.116	0.016
-393.106	-88.302	-0.445	-0.134
-392.092	-200.000	0.001	0.129
-391.077	72.946	-0.084	-0.088
-390.063	-101.418	0.265	0.065
-389.048	-77.781	0.104	-0.036
-388.033	-121.108	-0.079	0.013
-387.019	-157.654	0.082	-0.005
-386.004	77.434	-0.127	0.136
-384.990	426.171	0.007	0.016
-383.975	-200.000	0.005	-0.223
-382.960	-31.174	0.055	-0.031
-381.946	201.950	-0.181	-0.281
-380.931	-47.439	-0.062	-0.030
-379.917	-200.000	0.002	0.194
-378.902	71.481	0.183	0.191
-377.888	800.000	0.074	-0.240
-376.873	-139.173	0.392	-0.042
-375.858	116.766	0.151	0.186
-374.844	-69.752	-0.135	0.052
-373.829	-127.444	0.239	0.035
-372.815	61.833	-0.087	0.087
-371.800	295.351	-0.182	-0.335
-370.785	24.936	-0.302	-0.252
-369.771	800.000	0.101	0.298
-368.756	-127.097	0.291	0.043
-367.742	-20.296	-0.231	-0.143
-366.727	-186.053	0.452	0.007
-365.712	122.351	0.114	0.143
-364.698	473.094	0.106	0.239
-363.683	-10.971	-0.316	0.209
-362.669	66.475	-0.289	-0.295
-361.654	-200.000	-0.052	0.273
-360.639	26.885	-0.180	0.151
-359.625	712.247	-0.137	-0.364
-358.610	-9.028	-0.125	-0.084
-357.596	247.682	-0.058	-0.099
-356.581	-135.278	0.172	-0.021
-355.566	800.000	-0.038	-0.115
-354.552	-149.140	0.428	0.034
-353.537	27.931	-0.371	-0.314
-352.523	-149.175	0.477	0.038
-351.508	-200.000	0.097	-0.446
-350.493	118.557	-0.177	0.219
-349.479	-52.260	0.272	-0.126
-348.464	-90.359	-0.310	-0.090
-347.450	-122.565	-0.330	0.054
-346.435	-129.936	-0.326	0.045
-345.420	653.945	0.083	0.214
-344.406	800.000	-0.060	-0.239
-343.391	215.535	0.108	-0.173
-342.377	-200.000	0.018	-0.150
-341.362	800.000	0.051	-0.153
-340.348	-156.171	0.242	-0.015
-339.333	800.000	-0.025	0.111
-338.318	800.000	-0.080	-0.296
-337.304	57.857	0.069	-0.068
-336.289	-30.691	-0.259	-0.147
-335.275	-25.588	0.056	0.033
-334.260	800.000	-0.043	0.165
-333.245	63.188	0.187	-0.188
-332.231	4.869	-0.083	0.061
-331.216	-145.973	-0.262	0.023
-330.202	174.228	-0.152	-0.221
-329.187	-200.000	0.029	0.427
-328.172	-157.771	-0.187	0.011
-327.158	-147.415	0.544	-0.046
-326.143	-122.936	0.343	-0.055
-325.129	-200.000	0.016	0.107
-324.114	704.153	0.059	0.157
-323.099	-59.205	-0.127	-0.055
-322.085	-33.548	-0.227	0.126
-321.070	56.428	0.191	-0.186
-320.056	509.643	0.076	-0.176
-319.041	-91.649	0.195	-0.056
-318.026	-200.000	-0.045	0.263
-317.012	-107.429	0.177	0.039
-315.997	443.534	-0.109	-0.239
-314.983	66.833	-0.092	-0.094
-313.968	1.557	0.193	0.139
-312.953	328.932	0.037	0.071
-311.939	63.611	0.133	-0.133
-310.924	8.756	-0.251	0.190
-309.910	58.065	-0.303	0.298
-308.895	538.785	0.185	0.441
-307.880	-9.436	0.135	-0.090
-306.866	333.156	-0.155	-0.299
-305.851	186.669	0.196	-0.292
-304.837	57.364	0.209	-0.204
-303.822	-200.000	0.002	0.023
-302.807	-84.191	0.257	-0.082
-301.793	800.000	-0.118	-0.364
-300.778	800.000	0.026	-0.101
-299.764	800.000	-0.089	-0.258
-298.749	800.000	0.015	-0.045
-297.735	20.553	-0.332	0.269
-296.720	-173.663	0.272	0.008
-295.705	101.552	0.063	-0.074
-294.691	-200.000	0.003	0.304
-293.676	800.000	-0.093	-0.333
-292.662	97.355	0.115	-0.133
-291.647	-59.971	-0.289	0.124
-290.632	22.376	-0.071	-0.058
-289.618	79.013	-0.256	-0.274
-288.603	187.727	0.164	0.245
-287.589	-150.522	0.192	0.015
-286.574	-200.000	0.009	-0.275
-285.559	144.842	-0.075	0.101
-284.545	-130.737	0.273	-0.037
-283.530	-200.000	-0.037	-0.244
-282.516	-200.000	-0.046	-0.333
-281.501	180.502	-0.165	-0.243
-280.486	-200.000	-0.039	0.232
-279.472	-99.450	-0.212	0.053
-278.457	-157.261	-0.231	-0.014
-277.443	-54.746	0.109	-0.049
-276.428	-200.000	0.008	0.156
-275.413	-82.271	0.293	-0.095
-274.399	-200.000	0.005	0.054
-273.384	-200.000	-0.039	0.171
-272.370	-200.000	0.068	0.452
-271.355	264.247	0.071	0.124
-270.340	266.088	-0.174	0.303
-269.326	-119.173	0.288	-0.050
-268.311	206.099	0.103	0.161
-267.297	-55.442	0.073	0.033
-266.282	99.033	-0.269	0.310
-265.267	-148.853	0.341	0.028
-264.253	-200.000	0.011	0.305
-263.238	-12.411	0.188	-0.123
-262.224	150.487	-0.121	-0.165
-261.209	-68.293	-0.248	0.097
-260.195	-200.000	-0.001	-0.043
-259.180	56.940	-0.203	-0.197
-258.165	-200.000	-0.035	0.211
-257.151	-200.000	-0.025	0.220
-256.136	198.925	-0.142	0.217
-255.122	-77.890	-0.275	-0.095
-254.107	-149.902	0.374	-0.029
-253.092	188.987	0.119	-0.179
-252.078	10.371	0.181	-0.138
-251.063	20.798	0.081	0.065
-250.049	63.284	0.143	0.143
-249.034	-92.060	-0.155	0.044
-248.019	421.726	-0.103	-0.221
-247.005	432.312	-0.136	0.295
-245.990	218.978	0.085	0.137
-244.976	-78.053	-0.124	0.043
-243.961	-164.725	-0.253	0.011
-242.946	230.218	-0.084	0.137
-241.932	-40.943	-0.314	0.162
-240.917	130.949	0.127	-0.163
-239.903	-149.385	-0.080	0.006
-238.888	-24.468	-0.151	-0.090
-237.873	-70.333	-0.142	0.054
-236.859	87.903	0.210	0.233
-235.844	-69.840	0.123	0.047
-234.830	-90.501	0.256	0.074
-233.815	-200.000	0.007	-0.279
-232.800	-14.190	0.277	0.178
-231.786	-200.000	0.011	0.342
-230.771	-44.265	-0.212	0.106
-229.757	-116.030	0.081	-0.015
-228.742	-134.211	-0.523	-0.064
-227.727	-200.000	0.010	-0.294
-226.713	800.000	-0.123	0.360
-225.698	88.628	-0.134	-0.149
-224.684	365.104	0.066	-0.133
-223.669	405.311	-0.116	0.245
-222.655	-149.411	-0.167	0.013
-221.640	-176.905	0.270	0.007
-220.625	800.000	0.048	-0.164
-219.611	148.818	0.235	0.317
-218.596	125.509	0.133	-0.167
-217.582	-28.315	-0.151	-0.087
-216.567	-200.000	-0.061	0.278
-215.552	-114.221	0.328	-0.063
-214.538	92.179	0.202	-0.227
-213.523	120.008	0.252	-0.311
-212.509	94.678	-0.328	-0.372
-211.494	52.473	0.033	-0.032
-210.479	-63.781	0.185	-0.075
-209.465	-72.330	0.196	0.073
-208.450	-200.000	-0.029	-0.271
-207.436	-117.917	0.215	-0.038
-206.421	-200.000	0.039	-0.465
-205.406	80.270	0.167	0.179
-204.392	-8.459	0.013	-0.009
-203.377	702.630	-0.044	0.115
-202.363	626.153	-0.062	0.155
-201.348	36.803	0.064	-0.056
-200.333	151.725	-0.058	-0.078
-199.319	-200.000	0.008	0.053
-198.304	-94.153	0.244	0.067
-197.290	-40.116	-0.080	0.041
-196.275	174.284	-0.124	0.179
-195.260	390.548	0.098	-0.202
-194.246	-93.788	-0.153	0.042
-193.231	565.873	-0.109	0.265
-192.217	-101.200	-0.163	0.040
-191.202	50.830	-0.063	-0.059
-190.187	21.101	0.307	-0.248
-189.173	-3.008	0.368	-0.256
-188.158	34.110	0.123	-0.107
-187.144	78.502	-0.083	-0.088
-186.129	1.289	0.251	0.180
-185.114	800.000	-0.104	0.422
-184.100	32.968	0.117	-0.101
-183.085	158.107	-0.062	-0.086
-182.071	98.030	-0.100	-0.115
-181.056	112.995	-0.083	-0.100
-180.042	23.875	-0.230	0.189
-179.027	-130.631	0.251	-0.034
-178.012	111.665	0.141	0.170
-176.998	-131.303	-0.191	0.025
-175.983	-101.777	0.210	-0.051
-174.969	-88.385	-0.404	-0.120
-173.954	-103.433	-0.185	-0.044
-172.939	800.000	-0.013	0.035
-171.925	228.733	0.218	-0.354
-170.910	-73.745	0.301	0.109
-169.896	-193.153	0.269	-0.002
-168.881	-200.000	-0.028	0.401
-167.866	-3.400	-0.246	-0.170
-166.852	-66.254	-0.300	0.119
-165.837	-109.092	0.210	-0.045
-164.823	800.000	0.047	-0.200
-163.808	-17.243	0.157	-0.099
-162.793	-12.148	0.167	0.109
-161.779	231.387	0.170	0.278
-160.764	170.699	-0.017	0.024
-159.750	800.000	0.090	0.335
-158.735	69.816	-0.135	-0.139
-157.720	-200.000	0.018	0.106
-156.706	-130.343	-0.150	0.020
-155.691	-200.000	0.037	0.248
-154.677	-200.000	0.030	-0.206
-153.662	-56.237	-0.070	-0.031
-152.647	-77.671	0.356	0.123
-151.633	176.557	0.134	0.194
-150.618	-148.741	-0.496	-0.040
-149.604	800.000	0.149	-0.466
-148.589	1.275	-0.112	-0.080
-147.574	-200.000	-0.068	-0.319
-146.560	-48.103	-0.164	0.079
-145.545	26.574	-0.243	-0.202
-144.531	-114.892	0.318	0.060
-143.516	-64.286	-0.081	-0.033
-142.502	-200.000	-0.012	-0.278
-141.487	-145.380	0.167	-0.015
-140.472	-53.319	-0.081	0.037
-139.458	64.825	0.048	-0.049
-138.443	55.871	0.192	0.185
-137.429	-85.566	0.297	0.092
-136.414	-143.420	-0.156	0.015
-135.399	43.996	-0.387	0.353
-134.385	67.510	-0.123	0.125
-133.370	-200.000	0.039	0.259
-132.356	-7.816	0.133	0.090
-131.341	-70.016	-0.095	-0.036
-130.326	161.611	-0.083	0.116
-129.312	240.595	-0.134	-0.222
-128.297	0.260	-0.156	-0.111
-127.283	80.394	0.103	-0.110
-126.268	35.948	0.069	-0.060
-125.253	-58.079	0.172	-0.075
-124.239	-61.105	-0.198	0.083
-123.224	70.870	0.061	-0.063
-122.210	-38.668	0.139	0.073
-121.195	800.000	0.059	0.172
