DTS Sentinel unit serial number:	SN413079Multiplexer serial number:	ORYXHardware model number:	OX4-SRSoftware version number:	ORYX F/W v4.00 Oryx Data Collector v3.7.2.0data status	okinstallation	princeton_trtdifferential loss correction	single-endedforward channel	channel 1reverse channel	N/Adate	2019/09/12time	22:34:35forward acquisition time	60.00reverse acquisition time	0.00gamma	496.2192k internal	0.2327k external	0.2327temperature offset calibration	1.0150default loss term (dB/km)	0.3790temperature slope calibration	1.0000multiplexer offset coefficient	1.0000multiplexer slope coefficient	1.0000fibre end	0.00T internal ref (°C)	29.62T ext. ref 1 (°C)	3.74T ext. ref 2 (°C)	24.25length (m)	temperature (°C)	Stokes	anti-Stokes-747.200	667.987	-0.059	0.153
-746.185	-119.842	-0.451	-0.078
-745.171	-19.253	-0.091	0.057
-744.156	800.000	-0.141	0.415
-743.142	-62.719	-0.088	-0.037
-742.127	-53.988	-0.278	0.128
-741.112	322.576	-0.038	-0.073
-740.098	800.000	-0.066	-0.244
-739.083	-24.509	0.282	-0.169
-738.069	11.701	0.110	0.085
-737.054	-42.628	0.172	-0.088
-736.039	216.332	-0.032	-0.051
-735.025	289.717	0.090	0.165
-734.010	-21.199	0.091	0.056
-732.996	-200.000	0.036	-0.181
-731.981	-62.526	-0.226	0.094
-730.966	396.827	0.091	-0.192
-729.952	-144.008	-0.297	-0.028
-728.937	800.000	0.075	-0.293
-727.923	-95.350	-0.127	0.034
-726.908	-200.000	-0.008	0.303
-725.894	-39.332	-0.218	-0.115
-724.879	-164.022	-0.252	0.012
-723.864	167.813	-0.161	-0.231
-722.850	156.275	-0.092	-0.128
-721.835	92.701	0.059	0.068
-720.821	-2.691	-0.080	0.057
-719.806	-37.074	-0.365	-0.197
-718.791	4.699	-0.297	-0.220
-717.777	90.644	0.186	0.210
-716.762	-68.613	-0.188	-0.073
-715.748	269.398	0.090	0.159
-714.733	470.066	0.072	-0.163
-713.718	159.875	-0.147	-0.206
-712.704	-78.219	-0.307	-0.106
-711.689	-117.371	0.052	-0.010
-710.675	-128.400	0.261	-0.037
-709.660	560.959	-0.107	0.259
-708.645	-200.000	0.008	0.220
-707.631	800.000	-0.033	-0.100
-706.616	-12.633	0.095	0.062
-705.602	2.819	0.039	0.029
-704.587	244.735	0.093	0.158
-703.572	-138.152	-0.274	0.031
-702.558	-200.000	-0.012	0.155
-701.543	-139.807	0.297	-0.032
-700.529	-200.000	0.015	-0.275
-699.514	-61.584	-0.184	0.078
-698.499	-94.228	0.134	-0.037
-697.485	165.584	-0.074	-0.106
-696.470	418.330	-0.150	0.323
-695.456	464.912	-0.065	0.146
-694.441	800.000	0.117	0.367
-693.426	-26.402	0.081	0.048
-692.412	800.000	0.009	-0.026
-691.397	96.163	-0.296	-0.340
-690.383	214.914	-0.156	-0.250
-689.368	216.150	0.139	-0.222
-688.354	92.586	-0.079	-0.089
-687.339	-200.000	-0.046	-0.343
-686.324	31.884	-0.072	-0.062
-685.310	30.715	-0.352	-0.303
-684.295	-95.606	-0.055	-0.015
-683.281	-49.384	-0.100	0.048
-682.266	800.000	-0.105	-0.367
-681.251	-200.000	-0.024	-0.359
-680.237	-200.000	0.006	-0.106
-679.222	-200.000	0.000	0.053
-678.208	28.973	-0.117	0.100
-677.193	-154.636	-0.184	-0.012
-676.178	-55.913	-0.091	-0.041
-675.164	-25.402	0.036	0.021
-674.149	24.643	0.313	-0.261
-673.135	-15.341	0.190	0.122
-672.120	452.220	0.064	0.141
-671.105	-200.000	0.044	0.203
-670.091	-200.000	-0.015	-0.100
-669.076	40.348	-0.136	0.123
-668.062	-142.846	-0.106	-0.010
-667.047	-29.160	-0.258	-0.149
-666.032	114.319	-0.173	0.212
-665.018	-125.223	0.268	-0.041
-664.003	-87.911	0.173	0.052
-662.989	175.772	-0.075	0.109
-661.974	147.919	0.025	-0.034
-660.959	-200.000	0.002	0.058
-659.945	-50.013	0.323	0.154
-658.930	104.227	-0.212	0.250
-657.916	-39.210	0.129	-0.068
-656.901	-92.303	-0.029	0.008
-655.886	553.109	-0.215	-0.519
-654.872	-18.103	-0.333	0.209
-653.857	-78.849	-0.070	0.024
-652.843	-166.159	-0.404	0.017
-651.828	-200.000	-0.047	-0.326
-650.814	58.452	0.241	0.238
-649.799	-68.475	-0.287	0.112
-648.784	74.625	-0.260	-0.274
-647.770	-200.000	-0.021	0.112
-646.755	-200.000	-0.032	0.207
-645.741	800.000	0.035	0.105
-644.726	800.000	0.041	-0.125
-643.711	387.729	0.022	0.046
-642.697	168.258	0.079	-0.114
-641.682	-200.000	0.005	-0.159
-640.668	800.000	-0.019	0.066
-639.653	-200.000	0.001	-0.251
-638.638	-200.000	0.025	0.148
-637.624	800.000	0.066	0.193
-636.609	-88.059	-0.222	0.067
-635.595	-73.367	-0.239	0.088
-634.580	316.222	0.219	0.416
-633.565	-193.461	-0.268	-0.002
-632.551	49.677	0.121	0.114
-631.536	-113.222	-0.193	0.038
-630.522	209.089	-0.223	-0.351
-629.507	266.287	-0.054	-0.094
-628.492	581.748	-0.022	-0.055
-627.478	-152.364	0.034	-0.002
-626.463	-200.000	0.032	0.244
-625.449	212.557	-0.025	0.039
-624.434	-191.152	0.073	-0.001
-623.419	-94.335	-0.152	0.042
-622.405	-45.171	-0.108	-0.054
-621.390	-67.108	-0.347	-0.137
-620.376	7.251	-0.050	0.037
-619.361	-200.000	-0.032	-0.181
-618.346	-200.000	0.046	-0.208
-617.332	33.145	-0.177	0.154
-616.317	71.514	-0.085	0.089
-615.303	-67.836	0.194	0.076
-614.288	313.725	0.139	0.262
-613.273	-200.000	-0.035	-0.217
-612.259	-72.957	0.314	-0.116
-611.244	343.576	0.014	-0.027
-610.230	91.882	-0.060	-0.068
-609.215	-24.413	0.275	-0.165
-608.201	-90.135	0.260	0.076
-607.186	232.950	-0.157	0.258
-606.171	7.393	-0.164	-0.123
-605.157	-43.087	0.326	0.166
-604.142	-7.327	-0.195	-0.133
-603.128	-168.855	0.306	-0.012
-602.113	-200.000	0.017	-0.365
-601.098	41.333	0.176	-0.160
-600.084	141.618	0.211	0.280
-599.069	171.607	-0.103	-0.148
-598.055	-197.686	-0.071	0.000
-597.040	-19.478	0.228	-0.142
-596.025	800.000	-0.039	-0.140
-595.011	721.292	0.074	0.198
-593.996	129.802	0.250	-0.320
-592.982	45.882	-0.195	-0.180
-591.967	-114.593	0.340	0.065
-590.952	-200.000	0.040	0.321
-589.938	457.485	0.144	-0.321
-588.923	322.276	-0.048	-0.091
-587.909	376.834	0.092	-0.189
-586.894	-125.465	0.104	0.016
-585.879	0.170	0.316	-0.226
-584.865	-200.000	0.027	-0.362
-583.850	-86.513	0.138	-0.042
-582.836	157.068	0.139	0.192
-581.821	-200.000	-0.025	0.147
-580.806	44.345	0.180	-0.166
-579.792	-200.000	0.001	0.146
-578.777	800.000	0.046	-0.154
-577.763	800.000	0.058	-0.192
-576.748	76.446	-0.329	0.349
-575.733	58.186	0.203	-0.199
-574.719	8.519	-0.186	0.140
-573.704	118.925	-0.169	0.209
-572.690	500.775	0.085	-0.196
-571.675	547.302	-0.092	0.221
-570.661	87.977	0.067	-0.074
-569.646	-80.901	0.053	0.018
-568.631	800.000	-0.047	-0.180
-567.617	-82.977	0.075	-0.024
-566.602	-200.000	-0.044	-0.360
-565.588	12.813	0.216	-0.167
-564.573	415.609	0.108	0.230
-563.558	84.467	-0.097	0.106
-562.544	30.449	0.204	-0.175
-561.529	81.380	0.195	-0.211
-560.515	37.945	0.202	-0.179
-559.500	594.225	0.035	0.086
-558.485	-93.450	0.200	-0.056
-557.471	18.007	0.199	0.159
-556.456	108.709	-0.042	0.050
-555.442	242.050	-0.221	-0.370
-554.427	-200.000	-0.052	0.267
-553.412	-88.642	-0.302	0.090
-552.398	121.113	0.186	-0.232
-551.383	800.000	-0.089	0.291
-550.369	166.642	-0.224	-0.318
-549.354	-75.907	-0.281	0.100
-548.339	8.434	0.174	0.131
-547.325	-44.220	-0.049	-0.025
-546.310	142.841	-0.194	0.258
-545.296	-128.704	-0.710	0.100
-544.281	346.314	-0.052	-0.103
-543.266	-127.246	-0.068	0.010
-542.252	-126.781	-0.105	0.015
-541.237	45.097	0.291	0.268
-540.223	-73.562	-0.206	-0.075
-539.208	-121.037	-0.073	0.012
-538.193	97.740	-0.059	0.067
-537.179	-65.295	-0.331	-0.133
-536.164	552.701	-0.058	0.139
-535.150	-20.566	0.315	-0.193
-534.135	306.145	0.130	-0.242
-533.121	800.000	-0.077	0.258
-532.106	144.954	0.255	0.341
-531.091	624.641	-0.011	0.028
-530.077	-34.926	-0.067	-0.037
-529.062	-200.000	-0.123	0.000
-528.048	332.475	0.043	-0.084
-527.033	74.643	0.278	-0.293
-526.018	-144.057	0.045	-0.004
-525.004	-200.000	-0.014	-0.192
-523.989	30.199	-0.269	0.230
-522.975	-23.774	0.065	0.039
-521.960	318.386	-0.062	-0.117
-520.945	-77.596	0.114	0.039
-519.931	248.464	-0.077	0.130
-518.916	718.228	0.102	-0.270
-517.902	-81.930	0.168	-0.055
-516.887	-116.204	0.445	0.082
-515.872	800.000	0.011	-0.045
-514.858	-13.034	-0.061	-0.040
-513.843	-200.000	0.065	0.402
-512.829	-178.537	-0.039	-0.001
-511.814	-40.117	-0.232	-0.121
-510.799	-94.439	0.215	-0.059
-509.785	28.101	0.195	0.164
-508.770	62.782	0.032	0.032
-507.756	390.864	-0.023	-0.049
-506.741	-145.315	-0.217	0.020
-505.726	-146.438	-0.110	-0.010
-504.712	-170.479	0.221	0.008
-503.697	723.373	-0.101	-0.268
-502.683	-166.024	-0.098	-0.004
-501.668	466.917	-0.008	-0.019
-500.653	84.741	-0.239	0.261
-499.639	134.055	-0.228	0.295
-498.624	-3.823	0.028	-0.019
-497.610	-60.420	-0.271	-0.115
-496.595	-27.445	0.156	0.091
-495.581	143.664	0.115	-0.152
-494.566	20.560	-0.164	-0.132
-493.551	-11.064	0.224	-0.147
-492.537	58.140	0.110	0.108
-491.522	486.167	-0.162	0.369
-490.508	88.781	0.312	0.346
-489.493	126.026	0.134	-0.169
-488.478	782.277	0.031	0.086
-487.464	613.744	0.042	0.104
-486.449	-200.000	-0.007	-0.081
-485.435	-11.212	-0.297	-0.195
-484.420	-36.606	0.144	-0.077
-483.405	713.989	-0.057	-0.150
-482.391	79.961	-0.186	-0.200
-481.376	-95.479	0.083	-0.022
-480.362	-28.923	-0.170	-0.097
-479.347	25.695	-0.108	-0.090
-478.332	151.838	-0.181	-0.246
-477.318	-68.527	0.130	0.050
-476.303	447.763	-0.042	0.091
-475.289	-13.381	0.198	-0.128
-474.274	274.907	-0.136	0.240
-473.259	-200.000	0.006	-0.036
-472.245	-36.372	0.126	0.068
-471.230	340.003	0.120	0.233
-470.216	510.308	-0.046	-0.108
-469.201	7.357	-0.128	-0.095
-468.186	639.004	0.129	-0.326
-467.172	74.360	-0.050	0.053
-466.157	535.238	0.037	-0.086
-465.143	-164.346	-0.064	-0.003
-464.128	-88.221	0.152	0.045
-463.113	800.000	0.088	-0.269
-462.099	-55.497	-0.306	0.137
-461.084	-153.858	0.330	0.022
-460.070	-200.000	-0.013	0.254
-459.055	334.330	-0.104	0.201
-458.040	-14.928	0.067	-0.043
-457.026	-42.748	-0.080	0.041
-456.011	76.979	-0.134	0.142
-454.997	-200.000	-0.019	0.094
-453.982	-137.563	-0.071	-0.008
-452.968	-200.000	-0.024	-0.317
-451.953	53.671	-0.010	0.010
-450.938	-44.245	-0.167	0.084
-449.924	-200.000	0.034	-0.448
-448.909	-73.037	0.255	-0.093
-447.895	101.913	0.063	-0.073
-446.880	-34.490	-0.340	-0.185
-445.865	98.531	-0.068	0.078
-444.851	-200.000	0.048	-0.297
-443.836	-200.000	0.026	0.160
-442.822	-97.328	-0.299	-0.078
-441.807	-87.342	0.150	0.045
-440.792	143.203	0.012	0.017
-439.778	179.879	-0.046	-0.067
-438.763	271.635	-0.137	-0.241
-437.749	-200.000	-0.070	-0.411
-436.734	239.823	-0.088	-0.146
-435.719	-82.242	-0.132	-0.043
-434.705	-41.793	-0.272	0.139
-433.690	-5.959	0.155	-0.106
-432.676	39.499	0.027	0.024
-431.661	-64.072	-0.030	0.012
-430.646	-124.450	-0.035	0.005
-429.632	-133.770	-0.068	-0.008
-428.617	-200.000	-0.014	0.144
-427.603	-200.000	-0.033	-0.342
-426.588	-200.000	-0.012	-0.143
-425.573	112.177	-0.272	-0.327
-424.559	-112.232	-0.232	-0.046
-423.544	295.554	-0.032	-0.058
-422.530	12.698	0.052	0.040
-421.515	-102.938	-0.239	-0.057
-420.500	-58.682	-0.126	0.054
-419.486	-110.152	0.162	-0.034
-418.471	-200.000	0.017	-0.190
-417.457	398.547	0.042	0.088
-416.442	18.465	0.109	-0.087
-415.428	68.512	-0.116	-0.118
-414.413	45.558	-0.165	0.152
-413.398	-53.697	0.186	-0.085
-412.384	661.421	-0.098	0.252
-411.369	-200.000	0.010	0.077
-410.355	-143.156	0.365	0.035
-409.340	-118.886	-0.187	-0.033
-408.325	-200.000	0.043	-0.439
-407.311	-138.524	0.254	-0.028
-406.296	-42.550	0.232	0.117
-405.282	270.345	0.096	0.168
-404.267	-93.872	0.289	0.079
-403.252	-45.717	-0.191	-0.094
-402.238	800.000	-0.136	0.444
-401.223	-130.530	0.468	-0.063
-400.209	234.855	-0.230	-0.378
-399.194	285.114	-0.059	0.106
-398.179	-41.157	0.170	0.087
-397.165	-118.976	-0.306	-0.053
-396.150	419.942	0.198	-0.423
-395.136	478.438	-0.077	0.173
-394.121	-200.000	0.024	-0.156
-393.106	-191.859	-0.276	-0.003
-392.092	-97.243	0.113	-0.029
-391.077	160.671	-0.025	0.035
-390.063	-200.000	0.062	0.283
-389.048	-8.598	-0.154	-0.103
-388.033	243.205	-0.139	-0.232
-387.019	47.661	-0.206	0.191
-386.004	335.257	-0.013	-0.025
-384.990	-116.534	0.346	-0.063
-383.975	-39.698	-0.232	-0.120
-382.960	-77.375	-0.539	-0.186
-381.946	43.181	0.051	0.046
-380.931	123.469	-0.216	0.270
-379.917	-28.448	0.255	0.146
-378.902	504.727	-0.159	-0.366
-377.888	-51.692	0.465	0.215
-376.873	69.551	-0.365	-0.374
-375.858	182.077	0.206	0.301
-374.844	-114.719	0.471	-0.089
-373.829	270.369	-0.276	-0.483
-372.815	800.000	-0.092	-0.308
-371.800	254.711	-0.039	-0.066
-370.785	-100.062	-0.383	0.095
-369.771	16.175	-0.246	-0.193
-368.756	-130.193	0.134	-0.018
-367.742	338.954	-0.029	-0.055
-366.727	55.350	-0.084	0.081
-365.712	53.026	-0.063	0.060
-364.698	-200.000	-0.029	0.147
-363.683	-53.641	-0.083	-0.038
-362.669	-200.000	-0.009	0.059
-361.654	348.079	-0.051	-0.100
-360.639	-80.910	0.111	-0.037
-359.625	800.000	-0.070	0.211
-358.610	-66.321	0.353	-0.139
-357.596	27.883	0.382	-0.319
-356.581	800.000	0.003	0.010
-355.566	51.477	-0.236	0.223
-354.552	-170.773	0.226	-0.008
-353.537	-103.170	-0.221	-0.052
-352.523	-45.330	0.115	0.057
-351.508	-172.902	0.235	-0.007
-350.493	-62.266	0.212	-0.088
-349.479	-162.862	0.194	0.009
-348.464	-68.792	0.236	0.090
-347.450	561.692	0.004	0.009
-346.435	-39.611	0.275	0.143
-345.420	800.000	-0.056	0.206
-344.406	-125.810	-0.255	0.038
-343.391	92.684	-0.067	-0.076
-342.377	-40.788	0.158	0.081
-341.362	24.565	0.115	-0.094
-340.348	-200.000	-0.002	0.138
-339.333	0.592	0.289	0.205
-338.318	-152.039	-0.228	0.016
-337.304	-200.000	-0.033	0.177
-336.289	-80.790	-0.394	-0.130
-335.275	219.797	0.189	-0.301
-334.260	800.000	0.017	0.053
-333.245	27.911	-0.076	0.064
-332.231	-124.646	0.308	-0.047
-331.216	-200.000	-0.052	0.263
-330.202	-64.335	0.145	0.058
-329.187	-200.000	0.040	0.455
-328.172	-101.656	-0.149	0.036
-327.158	-102.512	-0.225	-0.053
-326.143	-184.217	-0.153	0.003
-325.129	-200.000	-0.044	-0.304
-324.114	2.376	-0.241	-0.173
-323.099	800.000	0.048	-0.177
-322.085	800.000	-0.073	0.231
-321.070	210.592	-0.127	-0.198
-320.056	83.883	-0.139	0.150
-319.041	-200.000	0.079	-0.351
-318.026	800.000	-0.016	0.047
-317.012	-174.170	-0.204	-0.006
-315.997	3.398	0.266	-0.192
-314.983	151.607	0.151	-0.204
-313.968	800.000	-0.087	-0.317
-312.953	-126.605	-0.077	0.011
-311.939	-200.000	-0.023	-0.135
-310.924	-22.629	0.274	0.164
-309.910	-200.000	0.014	0.156
-308.895	275.716	-0.143	0.252
-307.880	800.000	0.044	0.166
-306.866	-200.000	0.025	-0.138
-305.851	-46.536	0.188	-0.091
-304.837	-29.004	-0.121	0.069
-303.822	-132.614	0.290	-0.037
-302.807	144.623	0.090	0.119
-301.793	796.946	-0.055	-0.151
-300.778	28.591	-0.132	0.111
-299.764	-200.000	0.009	0.096
-298.749	-71.114	-0.219	0.082
-297.735	-124.571	-0.043	0.007
-296.720	166.117	0.089	-0.125
-295.705	22.498	0.118	-0.095
-294.691	40.285	0.071	-0.064
-293.676	-200.000	0.017	0.353
-292.662	-40.243	0.118	0.061
-291.647	571.902	0.140	-0.338
-290.632	-48.538	0.254	0.121
-289.618	800.000	0.083	0.242
-288.603	800.000	-0.071	0.304
-287.589	287.514	-0.186	0.332
-286.574	-137.603	-0.327	-0.037
-285.559	-73.233	0.372	-0.135
-284.545	800.000	0.090	0.337
-283.530	-200.000	0.002	0.213
-282.516	-115.058	0.192	0.036
-281.501	-3.919	-0.418	-0.287
-280.486	78.869	0.063	0.067
-279.472	-200.000	-0.007	-0.197
-278.457	168.305	-0.134	0.189
-277.443	-200.000	0.002	0.324
-276.428	-63.437	-0.237	0.096
-275.413	33.925	0.098	-0.084
-274.399	-87.378	-0.192	-0.058
-273.384	190.874	0.060	-0.089
-272.370	-26.982	0.370	0.214
-271.355	-56.614	-0.220	-0.096
-270.340	192.740	-0.129	-0.192
-269.326	-200.000	-0.017	0.300
-268.311	-200.000	-0.008	0.118
-267.297	800.000	-0.063	-0.253
-266.282	18.542	-0.210	-0.166
-265.267	-131.215	-0.137	0.018
-264.253	410.513	0.131	-0.275
-263.238	7.784	-0.098	0.073
-262.224	800.000	0.085	-0.247
-261.209	223.502	-0.082	-0.131
-260.195	21.315	0.052	-0.042
-259.180	796.172	0.124	-0.338
-258.165	-79.831	0.085	-0.028
-257.151	-20.057	0.123	-0.075
-256.136	38.101	-0.299	0.263
-255.122	182.332	0.027	0.040
-254.107	-200.000	-0.018	-0.093
-253.092	-21.893	0.107	-0.064
-252.078	-200.000	-0.018	-0.209
-251.063	-14.644	-0.303	0.193
-250.049	-200.000	0.055	-0.386
-249.034	-25.957	0.139	-0.081
-248.019	210.259	0.032	-0.050
-247.005	226.945	-0.056	0.090
-245.990	-50.360	-0.198	-0.093
-244.976	608.569	0.101	0.249
-243.961	-18.916	0.308	-0.190
-242.946	-110.532	-0.254	0.052
-241.932	800.000	-0.069	-0.204
-240.917	163.179	0.039	-0.054
-239.903	-94.703	-0.119	0.032
-238.888	-89.087	-0.079	-0.023
-237.873	-133.596	-0.310	0.038
-236.859	695.296	-0.054	0.141
-235.844	800.000	-0.036	0.116
-234.830	15.068	-0.141	0.109
-233.815	202.098	0.066	0.101
-232.800	-117.144	-0.070	0.013
-231.786	-200.000	0.020	0.090
-230.771	-200.000	-0.030	0.303
-229.757	-200.000	-0.015	0.085
-228.742	-139.639	0.129	-0.014
-227.727	-200.000	0.058	0.304
-226.713	-159.519	-0.062	-0.003
-225.698	-72.129	0.037	0.014
-224.684	-65.178	-0.165	-0.066
-223.669	-200.000	-0.011	0.113
-222.655	-200.000	-0.017	0.166
-221.640	672.469	-0.136	0.349
-220.625	-27.990	0.059	-0.034
-219.611	-76.985	0.111	0.038
-218.596	-123.649	0.066	-0.010
-217.582	206.180	0.084	0.129
-216.567	-20.135	-0.126	-0.077
-215.552	97.781	0.290	0.330
-214.538	800.000	-0.123	0.341
-213.523	337.515	0.057	0.109
-212.509	363.872	0.085	0.169
-211.494	-200.000	-0.012	0.204
-210.479	-200.000	0.028	0.280
-209.465	58.224	-0.256	-0.248
-208.450	38.298	0.076	-0.067
-207.436	-141.842	0.102	-0.010
-206.421	-71.668	-0.104	-0.038
-205.406	14.859	-0.107	-0.083
-204.392	371.288	0.048	-0.097
-203.377	92.638	-0.210	0.234
-202.363	33.696	-0.112	-0.096
-201.348	-200.000	-0.019	-0.181
-200.333	-8.964	0.128	0.084
-199.319	7.871	0.170	0.126
-198.304	-32.149	0.335	0.185
-197.290	484.771	-0.104	0.233
-196.275	-200.000	0.019	0.125
-195.260	-13.055	0.262	-0.168
-194.246	-178.796	0.179	-0.004
-193.231	246.084	-0.079	-0.131
-192.217	800.000	-0.009	0.030
-191.202	24.744	-0.151	0.124
-190.187	-70.842	-0.215	-0.080
-189.173	237.898	0.127	-0.209
-188.158	-129.326	0.201	-0.028
-187.144	-200.000	-0.023	0.364
-186.129	-200.000	-0.034	-0.287
-185.114	-29.460	0.136	0.077
-184.100	-130.930	0.174	0.023
-183.085	-200.000	-0.013	0.077
-182.071	89.929	0.083	0.091
-181.056	-200.000	-0.009	-0.188
-180.042	479.528	-0.027	0.061
-179.027	733.524	-0.111	0.294
-178.012	-200.000	0.046	0.272
-176.998	227.590	-0.247	0.397
-175.983	-71.782	-0.240	0.088
-174.969	300.239	0.085	0.154
-173.954	-82.029	0.287	0.093
-172.939	705.910	-0.020	-0.053
-171.925	83.572	0.163	-0.175
-170.910	-112.368	0.315	-0.062
-169.896	233.526	-0.118	-0.191
-168.881	-80.452	0.474	0.156
-167.866	-200.000	0.036	0.320
-166.852	-200.000	0.008	0.275
-165.837	-200.000	-0.032	0.249
-164.823	125.603	-0.046	0.058
-163.808	169.746	0.200	0.282
-162.793	-200.000	-0.023	-0.443
-161.779	258.205	-0.205	0.348
-160.764	3.841	0.255	-0.183
-159.750	-47.632	-0.264	0.126
-158.735	-59.779	-0.113	0.048
-157.720	800.000	-0.016	0.062
-156.706	-66.714	0.330	-0.129
-155.691	90.577	0.119	0.131
-154.677	48.910	0.284	0.263
-153.662	-200.000	-0.000	-0.077
-152.647	-113.154	-0.090	-0.017
-151.633	800.000	-0.034	-0.144
-150.618	-29.867	-0.060	0.034
-149.604	-92.548	0.267	0.074
-148.589	-13.364	0.250	0.160
-147.574	90.197	0.152	0.167
-146.560	-182.749	0.094	0.002
-145.545	-61.638	-0.446	-0.184
-144.531	243.031	0.048	0.079
-143.516	800.000	0.119	-0.441
-142.502	-127.525	-0.205	-0.029
-141.487	-101.000	-0.092	-0.022
-140.472	521.075	-0.063	-0.145
-139.458	-39.119	0.208	0.108
-138.443	4.651	-0.178	0.129
-137.429	-200.000	0.104	0.508
-136.414	-23.440	-0.075	-0.044
-135.399	183.190	0.062	-0.090
-134.385	43.575	0.016	0.014
-133.370	-200.000	0.003	-0.084
-132.356	2.245	0.256	-0.182
-131.341	4.300	-0.094	-0.068
-130.326	111.670	-0.229	0.272
-129.312	606.942	-0.120	0.295
-128.297	77.673	0.058	-0.060
-127.283	221.206	-0.183	-0.289
-126.268	-23.525	0.194	0.115
-125.253	800.000	-0.030	-0.117
-124.239	652.458	0.139	-0.350
-123.224	-171.840	-0.351	0.011
-122.210	758.534	-0.058	-0.154
-121.195	-100.071	0.282	0.069
