DTS Sentinel unit serial number:	SN413079Multiplexer serial number:	ORYXHardware model number:	OX4-SRSoftware version number:	ORYX F/W v4.00 Oryx Data Collector v3.7.2.0data status	okinstallation	princeton_trtdifferential loss correction	single-endedforward channel	channel 1reverse channel	N/Adate	2019/09/14time	09:30:35forward acquisition time	60.00reverse acquisition time	0.00gamma	496.2192k internal	0.2321k external	0.2321temperature offset calibration	1.0073default loss term (dB/km)	0.3790temperature slope calibration	1.0000multiplexer offset coefficient	1.0000multiplexer slope coefficient	1.0000fibre end	0.00T internal ref (°C)	31.45T ext. ref 1 (°C)	3.86T ext. ref 2 (°C)	29.25length (m)	temperature (°C)	Stokes	anti-Stokes-747.200	-117.601	-0.110	0.020
-746.185	-6.115	-0.223	0.154
-745.171	-51.573	0.156	0.074
-744.156	19.652	-0.270	0.220
-743.142	-78.063	-0.256	-0.089
-742.127	52.254	0.171	0.165
-741.112	-32.317	-0.243	-0.137
-740.098	652.164	-0.081	-0.210
-739.083	50.908	0.043	0.042
-738.069	105.678	-0.169	0.202
-737.054	395.193	0.021	0.044
-736.039	-200.000	-0.049	0.294
-735.025	84.325	-0.149	-0.165
-734.010	-200.000	0.001	0.081
-732.996	57.050	-0.276	-0.272
-731.981	-127.759	0.221	-0.032
-730.966	791.914	0.069	0.192
-729.952	122.218	0.211	-0.266
-728.937	363.306	-0.158	-0.321
-727.923	-200.000	-0.050	-0.463
-726.908	59.806	-0.400	0.399
-725.894	80.187	-0.111	-0.120
-724.879	-200.000	-0.021	0.113
-723.864	800.000	-0.083	-0.305
-722.850	-53.926	-0.234	0.108
-721.835	455.082	-0.057	-0.128
-720.821	140.607	-0.210	0.280
-719.806	536.359	0.094	-0.226
-718.791	-200.000	-0.035	0.447
-717.777	-200.000	-0.033	-0.181
-716.762	249.566	-0.078	-0.134
-715.748	-200.000	0.096	0.561
-714.733	-84.477	0.295	0.094
-713.718	169.626	-0.196	0.282
-712.704	-117.971	-0.369	0.067
-711.689	791.548	-0.042	0.118
-710.675	-155.908	0.183	-0.012
-709.660	-100.497	0.205	-0.051
-708.645	-91.715	-0.152	-0.043
-707.631	623.048	0.027	0.069
-706.616	130.127	-0.134	-0.173
-705.602	306.666	-0.147	0.276
-704.587	40.868	0.112	0.102
-703.572	-38.894	0.147	-0.078
-702.558	43.066	-0.201	0.185
-701.543	800.000	0.010	-0.035
-700.529	-200.000	0.022	-0.323
-699.514	-197.160	0.287	-0.002
-698.499	-200.000	-0.017	-0.202
-697.485	-64.685	0.156	0.064
-696.470	112.947	0.138	-0.169
-695.456	-107.450	-0.306	-0.068
-694.441	66.274	0.190	-0.195
-693.426	302.308	0.151	-0.281
-692.412	-44.897	0.344	-0.173
-691.397	-200.000	-0.001	-0.147
-690.383	-105.360	-0.061	0.014
-689.368	-200.000	0.056	0.278
-688.354	19.561	0.243	-0.197
-687.339	-29.702	0.082	0.047
-686.324	238.186	-0.134	0.225
-685.310	-200.000	0.002	-0.134
-684.295	32.258	-0.045	-0.039
-683.281	800.000	-0.033	-0.107
-682.266	-19.341	-0.269	0.168
-681.251	3.104	-0.162	-0.119
-680.237	800.000	0.076	0.303
-679.222	-73.954	-0.272	0.099
-678.208	-178.393	-0.486	-0.011
-677.193	-26.113	-0.069	0.041
-676.178	-40.602	0.038	0.020
-675.164	-200.000	-0.007	0.165
-674.149	-19.960	-0.471	-0.293
-673.135	28.657	0.154	-0.132
-672.120	170.998	0.102	-0.147
-671.105	800.000	-0.095	-0.273
-670.091	-127.032	-0.289	0.043
-669.076	-200.000	0.030	0.247
-668.062	4.429	0.154	-0.114
-667.047	169.179	0.053	-0.077
-666.032	31.496	-0.214	0.185
-665.018	35.436	-0.157	0.139
-664.003	-11.284	-0.102	0.068
-662.989	-200.000	-0.021	-0.304
-661.974	-124.872	0.147	-0.023
-660.959	108.982	-0.092	0.111
-659.945	-140.080	0.227	0.024
-658.930	-43.775	0.421	0.214
-657.916	-29.782	0.343	-0.197
-656.901	-54.710	-0.287	-0.131
-655.886	-159.130	0.206	0.012
-654.872	-160.557	0.239	-0.013
-653.857	45.313	0.311	0.289
-652.843	111.950	-0.046	-0.056
-651.828	800.000	-0.051	-0.164
-650.814	-152.456	-0.284	0.021
-649.799	40.160	0.131	-0.119
-648.784	-138.156	-0.403	0.045
-647.770	-60.052	0.193	-0.083
-646.755	-26.747	-0.200	-0.118
-645.741	171.549	0.056	0.081
-644.726	264.399	0.041	-0.071
-643.711	800.000	0.074	0.254
-642.697	-69.645	-0.309	-0.119
-641.682	-200.000	0.028	-0.218
-640.668	-200.000	-0.015	0.136
-639.653	39.367	0.133	-0.120
-638.638	-67.318	0.150	-0.059
-637.624	-43.737	0.339	0.172
-636.609	-95.026	0.441	-0.120
-635.595	-5.622	-0.105	-0.072
-634.580	-68.534	-0.195	-0.076
-633.565	156.718	0.070	0.097
-632.551	-106.675	0.284	0.063
-631.536	65.530	-0.193	0.197
-630.522	-71.695	0.103	0.039
-629.507	-12.922	-0.188	-0.123
-628.492	76.350	-0.076	0.081
-627.478	50.367	-0.111	-0.106
-626.463	452.544	-0.090	0.199
-625.449	638.436	0.065	-0.166
-624.434	13.510	0.183	0.143
-623.419	-18.540	0.379	-0.238
-622.405	800.000	-0.016	-0.070
-621.390	800.000	0.072	-0.221
-620.376	-150.394	0.072	-0.006
-619.361	88.611	-0.053	0.060
-618.346	-96.190	0.261	-0.070
-617.332	-145.377	-0.314	-0.028
-616.317	800.000	-0.071	0.271
-615.303	-200.000	0.036	-0.351
-614.288	20.026	-0.301	0.244
-613.273	-59.689	-0.239	-0.103
-612.259	-52.358	-0.173	-0.080
-611.244	78.216	-0.104	-0.112
-610.230	-42.606	-0.156	0.080
-609.215	-144.714	-0.085	0.008
-608.201	26.099	0.184	0.155
-607.186	120.367	-0.025	-0.032
-606.171	-108.917	-0.183	-0.039
-605.157	-100.316	0.016	0.004
-604.142	-200.000	-0.027	-0.362
-603.128	-200.000	-0.035	-0.334
-602.113	-80.510	0.090	-0.030
-601.098	-0.889	-0.201	0.143
-600.084	-177.269	0.211	-0.005
-599.069	-42.523	-0.130	-0.067
-598.055	-180.240	-0.038	-0.001
-597.040	29.589	0.279	-0.239
-596.025	800.000	0.043	-0.190
-595.011	-85.151	0.313	-0.098
-593.996	-106.296	-0.237	0.053
-592.982	159.976	-0.157	0.220
-591.967	49.649	0.163	0.154
-590.952	458.694	0.115	0.256
-589.938	164.942	0.186	0.263
-588.923	-200.000	-0.008	0.125
-587.909	192.063	-0.160	0.242
-586.894	-200.000	-0.029	-0.141
-585.879	800.000	0.045	0.149
-584.865	783.006	0.026	-0.073
-583.850	94.352	0.057	-0.065
-582.836	-200.000	0.055	-0.326
-581.821	-136.385	-0.279	0.033
-580.806	800.000	0.117	0.479
-579.792	127.835	0.157	-0.201
-578.777	-34.629	0.244	0.134
-577.763	141.248	0.227	0.301
-576.748	205.320	-0.144	0.225
-575.733	2.128	0.103	0.075
-574.719	218.250	-0.105	-0.169
-573.704	99.420	0.275	-0.320
-572.690	800.000	0.040	0.137
-571.675	-92.041	-0.264	0.075
-570.661	217.897	-0.106	-0.170
-569.646	25.551	0.201	0.168
-568.631	-27.716	0.082	-0.048
-567.617	-103.967	-0.283	0.066
-566.602	726.624	0.138	0.370
-565.588	65.045	-0.270	0.274
-564.573	-29.037	-0.147	0.085
-563.558	-200.000	0.059	0.293
-562.544	348.936	-0.071	-0.140
-561.529	201.221	-0.149	-0.230
-560.515	800.000	0.089	0.279
-559.500	75.272	-0.098	-0.104
-558.485	-102.883	0.175	0.042
-557.471	64.049	-0.072	-0.073
-556.456	-54.275	-0.048	-0.022
-555.442	-80.663	-0.243	-0.081
-554.427	-175.790	-0.078	0.002
-553.412	59.916	-0.137	0.136
-552.398	-200.000	0.009	0.110
-551.383	146.378	0.055	0.074
-550.369	10.629	-0.250	0.191
-549.354	-143.498	-0.269	-0.026
-548.339	-200.000	0.016	-0.091
-547.325	-72.015	0.506	-0.189
-546.310	-97.784	-0.283	-0.073
-545.296	-200.000	-0.003	-0.087
-544.281	-43.212	0.206	0.105
-543.266	115.664	-0.130	-0.160
-542.252	-111.533	-0.274	-0.056
-541.237	17.002	0.226	-0.180
-540.223	-200.000	0.006	0.132
-539.208	800.000	-0.092	-0.308
-538.193	409.989	0.216	-0.459
-537.179	-173.324	-0.251	0.008
-536.164	410.106	0.176	0.374
-535.150	-113.601	0.359	0.070
-534.135	-200.000	-0.059	0.524
-533.121	96.035	0.244	0.280
-532.106	800.000	-0.094	0.354
-531.091	283.494	-0.067	0.121
-530.077	-200.000	-0.024	0.227
-529.062	155.352	0.136	-0.187
-528.048	-164.439	-0.299	0.014
-527.033	-200.000	0.012	0.058
-526.018	476.991	0.026	0.058
-525.004	-78.559	0.241	0.083
-523.989	160.037	-0.164	-0.229
-522.975	-18.412	-0.115	-0.072
-521.960	156.809	0.111	0.154
-520.945	-136.663	-0.301	0.035
-519.931	60.966	-0.040	0.039
-518.916	-102.628	-0.263	0.063
-517.902	110.734	0.018	-0.021
-516.887	716.016	0.013	0.036
-515.872	-200.000	-0.445	-0.001
-514.858	-34.012	0.357	0.197
-513.843	205.610	0.181	-0.281
-512.829	38.254	0.215	-0.192
-511.814	251.668	0.070	-0.120
-510.799	300.458	0.105	-0.194
-509.785	-23.648	-0.359	0.216
-508.770	201.786	-0.079	-0.121
-507.756	-200.000	0.015	-0.107
-506.741	94.244	-0.078	-0.088
-505.726	49.372	0.378	0.356
-504.712	-200.000	0.034	0.157
-503.697	-73.760	-0.346	-0.126
-502.683	63.319	-0.207	-0.208
-501.668	253.866	-0.097	-0.166
-500.653	-7.800	0.096	0.065
-499.639	48.419	-0.332	-0.311
-498.624	157.417	0.162	-0.224
-497.610	40.675	0.130	-0.117
-496.595	-200.000	-0.009	0.267
-495.581	40.343	0.228	0.206
-494.566	84.234	0.198	0.216
-493.551	27.342	-0.078	-0.066
-492.537	-200.000	0.000	-0.308
-491.522	-74.430	0.042	0.015
-490.508	-75.886	0.071	-0.025
-489.493	-65.553	0.216	0.087
-488.478	128.114	-0.062	0.079
-487.464	-200.000	0.020	0.279
-486.449	-112.237	-0.225	0.045
-485.435	-35.477	-0.158	0.086
-484.420	-104.257	-0.299	-0.069
-483.405	215.258	-0.133	-0.211
-482.391	-200.000	0.011	0.213
-481.376	4.609	-0.047	0.034
-480.362	-7.397	-0.191	0.129
-479.347	227.622	-0.055	0.090
-478.332	-200.000	-0.074	-0.336
-477.318	33.167	-0.280	-0.243
-476.303	-69.892	0.390	0.149
-475.289	-200.000	-0.019	0.170
-474.274	29.659	0.208	0.177
-473.259	53.631	0.258	-0.247
-472.245	-120.000	-0.237	0.041
-471.230	652.570	-0.078	0.200
-470.216	155.127	0.049	-0.068
-469.201	-12.544	-0.320	-0.209
-468.186	724.205	-0.054	-0.144
-467.172	-26.520	-0.021	-0.012
-466.157	-27.989	0.279	-0.162
-465.143	-200.000	-0.045	-0.333
-464.128	242.298	-0.120	0.201
-463.113	-200.000	0.000	-0.515
-462.099	71.353	0.227	0.236
-461.084	73.894	0.185	-0.194
-460.070	534.187	-0.010	-0.024
-459.055	154.343	0.108	-0.148
-458.040	357.936	-0.164	-0.327
-457.026	-9.358	-0.110	0.073
-456.011	-134.878	0.576	-0.070
-454.997	-200.000	-0.039	-0.223
-453.982	6.968	-0.243	-0.181
-452.968	-112.889	-0.220	-0.044
-451.953	-36.098	-0.282	0.152
-450.938	-127.895	0.073	-0.011
-449.924	-15.527	-0.173	-0.111
-448.909	-25.418	-0.297	0.175
-447.895	-47.231	-0.179	0.087
-446.880	156.336	-0.084	0.115
-445.865	5.450	0.303	-0.223
-444.851	-200.000	0.006	-0.125
-443.836	276.162	0.066	0.117
-442.822	-200.000	0.006	-0.139
-441.807	214.815	-0.051	-0.081
-440.792	-200.000	-0.213	-0.000
-439.778	-165.329	-0.336	-0.015
-438.763	119.182	-0.119	0.148
-437.749	24.566	0.150	0.124
-436.734	-144.143	-0.159	0.015
-435.719	-129.651	-0.137	-0.019
-434.705	-27.345	-0.068	-0.039
-433.690	-173.997	-0.149	-0.004
-432.676	-181.055	0.245	-0.005
-431.661	205.336	-0.142	0.220
-430.646	600.114	0.125	0.311
-429.632	73.184	0.156	0.163
-428.617	252.489	0.095	-0.161
-427.603	46.765	-0.060	0.056
-426.588	-200.000	-0.017	0.080
-425.573	-200.000	0.005	0.054
-424.559	302.484	0.119	-0.221
-423.544	155.667	-0.286	-0.393
-422.530	45.774	0.128	0.118
-421.515	121.826	0.067	-0.083
-420.500	-12.259	-0.162	-0.106
-419.486	25.061	-0.137	0.113
-418.471	-11.764	-0.227	0.149
-417.457	5.366	-0.288	-0.212
-416.442	12.765	0.141	-0.109
-415.428	800.000	-0.015	-0.055
-414.413	-2.240	0.102	0.072
-413.398	-102.528	0.433	-0.103
-412.384	-60.311	0.234	0.099
-411.369	-200.000	0.004	0.021
-410.355	-200.000	-0.076	-0.350
-409.340	-41.648	-0.238	0.122
-408.325	-200.000	-0.046	-0.262
-407.311	-200.000	-0.024	0.296
-406.296	640.552	0.083	0.211
-405.282	-200.000	-0.021	-0.103
-404.267	-82.954	-0.297	-0.096
-403.252	-200.000	0.033	-0.154
-402.238	107.186	-0.056	0.066
-401.223	-25.288	0.151	0.089
-400.209	-120.509	0.065	0.011
-399.194	726.882	0.060	-0.160
-398.179	186.581	-0.171	-0.253
-397.165	-200.000	0.019	-0.255
-396.150	-200.000	0.013	-0.126
-395.136	7.044	-0.255	-0.190
-394.121	-100.638	-0.132	-0.033
-393.106	-200.000	0.017	-0.285
-392.092	-7.393	0.309	0.209
-391.077	204.128	-0.121	0.186
-390.063	-126.456	-0.190	-0.028
-389.048	-131.235	0.519	-0.069
-388.033	44.618	-0.228	0.209
-387.019	-61.388	0.184	-0.077
-386.004	37.653	0.256	0.226
-384.990	800.000	-0.121	0.462
-383.975	-60.211	-0.091	0.039
-382.960	-128.060	-0.243	0.035
-381.946	-139.722	-0.185	0.020
-380.931	-102.847	0.511	-0.121
-379.917	9.515	-0.177	-0.134
-378.902	9.199	0.292	-0.220
-377.888	-19.326	0.096	-0.059
-376.873	130.113	-0.133	0.170
-375.858	31.206	-0.141	-0.121
-374.844	313.029	-0.029	0.055
-373.829	-200.000	0.042	0.306
-372.815	-200.000	-0.000	0.195
-371.800	-200.000	0.037	0.357
-370.785	-26.069	-0.120	0.070
-369.771	570.510	0.160	0.388
-368.756	-70.786	0.140	-0.053
-367.742	79.192	0.173	-0.185
-366.727	-200.000	-0.010	0.098
-365.712	198.227	-0.088	-0.133
-364.698	173.320	-0.021	-0.030
-363.683	-45.119	-0.383	-0.189
-362.669	247.856	0.182	-0.306
-361.654	-200.000	0.000	0.208
-360.639	800.000	-0.135	0.371
-359.625	-200.000	0.031	0.340
-358.610	550.647	-0.116	0.278
-357.596	800.000	0.111	-0.388
-356.581	-154.849	-0.110	0.007
-355.566	125.198	-0.205	-0.257
-354.552	232.563	0.171	0.280
-353.537	16.366	-0.425	0.334
-352.523	800.000	0.064	-0.210
-351.508	277.063	-0.225	0.398
-350.493	142.477	0.098	-0.130
-349.479	-7.868	0.173	-0.116
-348.464	-58.141	0.164	0.071
-347.450	167.728	-0.016	0.023
-346.435	114.663	-0.269	-0.326
-345.420	78.502	-0.083	-0.088
-344.406	5.173	0.193	-0.142
-343.391	-163.080	0.195	0.009
-342.377	83.161	0.281	-0.304
-341.362	285.701	0.094	0.169
-340.348	-200.000	0.054	0.319
-339.333	127.714	0.137	-0.173
-338.318	134.246	0.161	-0.207
-337.304	800.000	0.051	-0.207
-336.289	-200.000	0.006	0.154
-335.275	-200.000	-0.013	0.212
-334.260	-4.222	-0.157	0.108
-333.245	-200.000	-0.050	-0.247
-332.231	-200.000	-0.062	0.517
-331.216	-22.005	-0.248	0.150
-330.202	-69.802	-0.147	0.056
-329.187	-93.523	0.041	0.011
-328.172	-200.000	-0.028	-0.128
-327.158	442.391	0.102	0.222
-326.143	-19.456	-0.411	-0.253
-325.129	-200.000	0.014	-0.093
-324.114	149.085	0.116	-0.156
-323.099	-37.658	-0.079	0.042
-322.085	157.355	0.157	0.217
-321.070	489.850	0.159	0.361
-320.056	-164.261	-0.382	-0.017
-319.041	800.000	0.072	-0.276
-318.026	-10.412	-0.277	0.183
-317.012	-83.026	0.120	-0.038
-315.997	-200.000	0.019	-0.424
-314.983	-200.000	0.021	-0.098
-313.968	-97.927	0.165	0.042
-312.953	-6.701	-0.122	0.083
-311.939	704.741	-0.035	-0.092
-310.924	-200.000	-0.021	-0.268
-309.910	-88.719	0.283	0.084
-308.895	800.000	0.096	0.264
-307.880	-200.000	-0.031	-0.439
-306.866	-124.352	0.059	-0.009
-305.851	193.730	0.064	-0.097
-304.837	-175.623	-0.331	-0.009
-303.822	800.000	-0.066	0.192
-302.807	-19.401	-0.185	0.114
-301.793	23.586	0.119	-0.098
-300.778	141.385	0.142	0.186
-299.764	-200.000	0.028	0.291
-298.749	56.255	-0.117	-0.113
-297.735	-67.093	0.236	0.093
-296.720	-170.062	0.294	0.010
-295.705	-22.867	-0.277	-0.166
-294.691	97.511	0.100	-0.114
-293.676	34.733	0.107	-0.093
-292.662	-162.011	-0.051	0.003
-291.647	800.000	-0.104	0.285
-290.632	-200.000	0.009	-0.227
-289.618	-49.954	-0.348	0.164
-288.603	80.012	-0.162	0.173
-287.589	81.211	0.103	-0.111
-286.574	-0.832	0.201	-0.141
-285.559	-96.144	0.074	0.019
-284.545	576.591	0.082	-0.198
-283.530	800.000	-0.047	-0.192
-282.516	-45.153	-0.372	-0.184
-281.501	-18.278	0.336	-0.209
-280.486	-69.530	-0.261	-0.099
-279.472	-200.000	-0.009	-0.342
-278.457	218.183	0.143	0.226
-277.443	41.925	-0.233	-0.210
-276.428	25.253	0.310	0.256
-275.413	-91.566	-0.226	-0.064
-274.399	9.332	0.165	0.124
-273.384	-29.667	0.233	0.132
-272.370	316.324	-0.092	-0.172
-271.355	338.630	0.115	-0.223
-270.340	-200.000	0.026	-0.234
-269.326	800.000	0.082	-0.270
-268.311	-109.134	0.165	-0.035
-267.297	-11.077	-0.102	0.067
-266.282	800.000	-0.121	0.414
-265.267	8.026	-0.081	0.061
-264.253	-27.586	-0.215	-0.124
-263.238	-6.001	0.319	0.216
-262.224	-98.761	0.215	0.054
-261.209	-53.905	-0.066	-0.030
-260.195	152.755	-0.155	-0.210
-259.180	254.070	-0.064	0.108
-258.165	5.835	0.290	0.213
-257.151	-79.971	0.275	-0.092
-256.136	-200.000	0.010	-0.081
-255.122	163.032	-0.143	-0.200
-254.107	53.513	0.254	-0.242
-253.092	-176.691	0.091	0.002
-252.078	-151.890	0.338	0.025
-251.063	157.773	0.063	0.086
-250.049	-200.000	0.112	0.521
-249.034	-200.000	0.004	0.020
-248.019	-2.728	-0.165	0.114
-247.005	12.726	0.189	0.145
-245.990	-153.573	0.176	0.012
-244.976	136.803	-0.212	0.275
-243.961	692.094	0.160	0.415
-242.946	335.687	0.116	0.223
-241.932	-145.997	0.180	0.016
-240.917	-200.000	-0.062	-0.391
-239.903	68.571	0.105	0.106
-238.888	47.867	-0.360	0.333
-237.873	-117.572	-0.191	-0.034
-236.859	37.193	0.175	0.154
-235.844	-200.000	0.058	0.287
-234.830	-200.000	-0.008	0.087
-233.815	-57.274	0.361	-0.157
-232.800	-72.262	0.154	0.057
-231.786	493.619	-0.042	0.096
-230.771	162.312	-0.119	-0.165
-229.757	4.827	0.258	-0.188
-228.742	-69.391	0.078	-0.029
-227.727	138.176	0.094	-0.122
-226.713	800.000	-0.061	0.209
-225.698	0.115	-0.214	0.151
-224.684	800.000	-0.066	0.195
-223.669	-145.930	0.056	0.005
-222.655	416.087	0.045	0.096
-221.640	-95.411	0.224	0.060
-220.625	112.309	-0.098	0.118
-219.611	-8.823	-0.150	-0.099
-218.596	66.514	-0.232	-0.234
-217.582	800.000	0.092	-0.341
-216.567	-161.475	-0.092	-0.005
-215.552	-55.639	-0.229	0.102
-214.538	-200.000	0.012	0.336
-213.523	-78.189	-0.483	0.165
-212.509	-7.622	0.166	-0.111
-211.494	-200.000	-0.014	-0.099
-210.479	798.178	-0.153	-0.417
-209.465	-200.000	0.011	-0.052
-208.450	-67.030	-0.145	0.057
-207.436	149.754	-0.147	-0.197
-206.421	800.000	0.014	-0.044
-205.406	-102.084	-0.207	0.049
-204.392	-84.477	0.292	0.091
-203.377	211.959	0.180	-0.281
-202.363	263.313	-0.165	-0.283
-201.348	87.393	0.143	0.157
-200.333	59.317	0.162	0.158
-199.319	-152.690	0.287	0.020
-198.304	351.880	0.140	-0.275
-197.290	216.561	0.104	-0.164
-196.275	127.886	-0.281	0.353
-195.260	-166.522	-0.198	-0.008
-194.246	81.617	-0.263	0.282
-193.231	265.436	-0.034	0.059
-192.217	80.406	-0.061	-0.065
-191.202	-112.905	0.274	-0.054
-190.187	-71.587	0.379	0.140
-189.173	-200.000	-0.033	0.260
-188.158	11.607	-0.235	-0.179
-187.144	-200.000	0.016	-0.226
-186.129	-73.786	-0.195	0.070
-185.114	193.690	-0.213	-0.319
-184.100	800.000	0.034	0.129
-183.085	383.792	0.150	0.305
-182.071	46.725	0.154	0.141
-181.056	182.664	0.279	0.407
-180.042	13.488	0.174	-0.133
-179.027	-192.348	-0.128	0.001
-178.012	-39.617	-0.064	-0.033
-176.998	-99.268	0.328	0.082
-175.983	129.507	-0.275	-0.347
-174.969	-200.000	0.035	0.253
-173.954	-123.216	0.569	0.090
-172.939	68.615	0.312	-0.317
-171.925	120.170	-0.131	-0.160
-170.910	-57.413	-0.189	-0.082
-169.896	653.626	0.108	-0.274
-168.881	800.000	0.111	0.382
-167.866	2.929	-0.257	0.184
-166.852	272.847	0.092	-0.160
-165.837	84.491	0.260	0.281
-164.823	241.165	0.228	0.376
-163.808	-117.734	0.420	0.075
-162.793	489.775	-0.086	-0.195
-161.779	-76.091	0.251	0.088
-160.764	-109.607	-0.106	0.022
-159.750	-4.392	-0.349	-0.239
-158.735	800.000	-0.090	-0.279
-157.720	-100.476	-0.330	0.081
-156.706	-76.978	0.180	-0.062
-155.691	-29.161	0.098	0.056
-154.677	56.412	-0.107	-0.103
-153.662	366.797	-0.072	-0.143
-152.647	171.785	0.314	-0.445
-151.633	800.000	-0.010	-0.040
-150.618	5.907	0.131	-0.095
-149.604	-59.717	0.362	-0.153
-148.589	-104.217	-0.114	0.026
-147.574	-99.089	0.460	0.115
-146.560	-200.000	0.022	-0.140
-145.545	-87.680	-0.195	0.058
-144.531	-200.000	-0.006	0.038
-143.516	800.000	0.113	0.394
-142.502	-13.356	0.180	-0.116
-141.487	110.535	-0.251	-0.298
-140.472	15.149	-0.252	0.195
-139.458	236.547	-0.012	0.019
-138.443	198.409	-0.258	0.390
-137.429	54.076	-0.130	0.123
-136.414	-72.457	-0.223	-0.081
-135.399	-118.288	-0.213	0.037
-134.385	-200.000	-0.013	0.061
-133.370	800.000	0.075	-0.211
-132.356	225.042	0.160	0.255
-131.341	785.798	-0.059	-0.159
-130.326	20.585	0.176	0.140
-129.312	-23.511	-0.211	0.125
-128.297	-7.680	-0.198	0.132
-127.283	768.728	-0.017	-0.045
-126.268	2.139	-0.095	0.068
-125.253	8.304	0.208	-0.154
-124.239	-136.130	0.110	-0.013
-123.224	-200.000	-0.043	0.287
-122.210	-200.000	0.040	0.175
-121.195	-89.403	-0.220	0.064
-120.180	386.498	0.096	-0.196
