DTS Sentinel unit serial number:	SN413079Multiplexer serial number:	ORYXHardware model number:	OX4-SRSoftware version number:	ORYX F/W v4.00 Oryx Data Collector v3.7.2.0data status	okinstallation	princeton_trtdifferential loss correction	single-endedforward channel	channel 1reverse channel	N/Adate	2019/09/11time	02:04:11forward acquisition time	60.00reverse acquisition time	0.00gamma	496.2192k internal	0.2332k external	0.2332temperature offset calibration	0.9930default loss term (dB/km)	0.3790temperature slope calibration	1.0000multiplexer offset coefficient	1.0000multiplexer slope coefficient	1.0000fibre end	0.00T internal ref (°C)	29.19T ext. ref 1 (°C)	-0.29T ext. ref 2 (°C)	23.16length (m)	temperature (°C)	Stokes	anti-Stokes-747.200	143.388	0.147	0.198
-746.185	-142.206	0.225	0.022
-745.171	-40.014	-0.289	0.152
-744.156	-200.000	-0.066	0.516
-743.142	-200.000	-0.088	0.475
-742.127	-200.000	-0.002	0.248
-741.112	47.093	0.111	0.104
-740.098	142.582	-0.218	-0.292
-739.083	-19.126	-0.047	-0.030
-738.069	36.077	-0.190	0.168
-737.054	800.000	-0.046	0.180
-736.039	137.865	0.175	-0.230
-735.025	-141.607	-0.132	0.013
-734.010	-31.574	0.256	0.145
-732.996	-16.506	-0.105	-0.067
-731.981	-97.483	0.183	-0.048
-730.966	514.249	-0.073	0.171
-729.952	-200.000	0.031	0.343
-728.937	-89.118	0.241	0.072
-727.923	-128.696	-0.194	0.028
-726.908	-94.412	-0.250	0.068
-725.894	-32.987	-0.325	0.181
-724.879	14.020	-0.026	0.020
-723.864	-200.000	0.001	0.148
-722.850	-33.216	0.275	0.153
-721.835	86.835	-0.162	-0.180
-720.821	50.115	-0.109	-0.103
-719.806	-97.002	-0.229	-0.060
-718.791	-3.638	-0.310	-0.216
-717.777	795.478	-0.080	-0.222
-716.762	216.269	-0.018	0.029
-715.748	-135.474	-0.044	-0.005
-714.733	800.000	-0.088	-0.249
-713.718	69.598	0.273	0.283
-712.704	-135.993	-0.238	0.028
-711.689	800.000	0.052	0.148
-710.675	-86.609	-0.248	0.077
-709.660	456.624	-0.078	-0.173
-708.645	666.472	-0.054	0.140
-707.631	163.690	0.306	0.433
-706.616	21.156	0.056	0.046
-705.602	314.169	-0.169	0.319
-704.587	223.676	0.189	-0.307
-703.572	-40.856	-0.201	-0.104
-702.558	-103.729	0.104	0.024
-701.543	-84.276	0.415	-0.132
-700.529	-200.000	0.016	0.148
-699.514	-130.958	-0.351	0.047
-698.499	-200.000	0.072	0.333
-697.485	380.719	-0.122	-0.251
-696.470	147.613	-0.155	-0.210
-695.456	-99.620	-0.211	-0.053
-694.441	224.055	0.073	-0.119
-693.426	-200.000	-0.006	-0.065
-692.412	-119.631	0.430	0.075
-691.397	-200.000	-0.003	-0.106
-690.383	419.906	-0.078	0.168
-689.368	124.656	0.138	0.175
-688.354	800.000	0.045	-0.188
-687.339	800.000	0.056	-0.238
-686.324	-200.000	0.022	0.127
-685.310	-200.000	-0.063	-0.293
-684.295	-200.000	0.039	0.191
-683.281	-200.000	0.021	-0.209
-682.266	180.547	-0.110	0.162
-681.251	-133.316	0.109	-0.014
-680.237	123.515	-0.185	0.233
-679.222	214.650	-0.121	-0.192
-678.208	-76.949	-0.276	-0.097
-677.193	-27.802	0.144	-0.084
-676.178	-128.861	0.593	-0.084
-675.164	-200.000	-0.025	0.413
-674.149	136.195	0.121	-0.158
-673.135	126.660	-0.022	0.028
-672.120	-200.000	0.001	-0.222
-671.105	411.774	-0.153	-0.327
-670.091	291.314	0.116	-0.211
-669.076	-146.916	0.158	-0.014
-668.062	183.899	0.054	0.080
-667.047	-200.000	0.016	-0.410
-666.032	489.206	-0.124	-0.284
-665.018	-200.000	0.009	-0.061
-664.003	-12.414	0.124	-0.081
-662.989	-191.554	0.143	-0.001
-661.974	-135.313	-0.278	-0.033
-660.959	-200.000	-0.004	0.128
-659.945	60.106	0.157	-0.156
-658.930	-200.000	0.006	0.275
-657.916	-50.138	0.316	-0.150
-656.901	-200.000	-0.001	-0.078
-655.886	-200.000	-0.047	-0.548
-654.872	800.000	-0.066	-0.253
-653.857	-117.634	-0.144	-0.026
-652.843	178.927	0.108	-0.159
-651.828	-138.951	-0.279	-0.030
-650.814	-63.778	-0.046	0.019
-649.799	410.344	-0.084	-0.178
-648.784	7.738	-0.153	-0.115
-647.770	-39.336	-0.364	-0.192
-646.755	6.572	-0.079	0.059
-645.741	-0.859	-0.371	-0.264
-644.726	-112.363	-0.286	-0.057
-643.711	-200.000	-0.010	0.057
-642.697	49.908	0.105	-0.099
-641.682	-200.000	0.004	-0.194
-640.668	487.069	-0.025	0.057
-639.653	17.708	0.084	0.067
-638.638	-86.833	-0.077	0.024
-637.624	800.000	-0.080	-0.244
-636.609	800.000	-0.069	-0.276
-635.595	-200.000	0.053	-0.396
-634.580	-164.569	-0.017	0.001
-633.565	-122.467	0.371	0.060
-632.551	800.000	-0.036	0.149
-631.536	-140.409	-0.089	-0.009
-630.522	-200.000	0.027	-0.240
-629.507	-117.118	-0.498	0.091
-628.492	800.000	-0.054	0.177
-627.478	-181.000	-0.360	-0.007
-626.463	-118.896	-0.414	-0.073
-625.449	-102.430	0.051	-0.012
-624.434	-32.992	-0.127	-0.071
-623.419	507.095	-0.029	-0.068
-622.405	41.758	-0.096	-0.087
-621.390	-61.470	-0.261	-0.110
-620.376	800.000	-0.040	-0.158
-619.361	125.245	-0.147	-0.185
-618.346	24.831	0.134	-0.111
-617.332	-97.670	-0.236	-0.061
-616.317	-144.084	0.181	0.017
-615.303	85.598	0.113	-0.124
-614.288	800.000	0.046	-0.194
-613.273	-134.287	-0.263	0.032
-612.259	-16.278	-0.153	-0.097
-611.244	-123.455	0.079	-0.013
-610.230	-64.533	0.160	0.065
-609.215	-119.257	-0.129	-0.023
-608.201	-200.000	-0.191	0.000
-607.186	35.114	0.064	0.056
-606.171	-200.000	-0.051	-0.266
-605.157	62.321	-0.188	-0.188
-604.142	41.698	-0.138	-0.125
-603.128	-161.430	-0.070	0.004
-602.113	-160.305	0.579	0.031
-601.098	-200.000	-0.020	-0.448
-600.084	800.000	-0.072	0.266
-599.069	684.050	-0.021	0.055
-598.055	499.503	0.071	0.165
-597.040	800.000	0.105	0.441
-596.025	718.463	0.078	0.207
-595.011	-200.000	-0.012	0.138
-593.996	-112.935	-0.316	-0.063
-592.982	-182.262	0.173	-0.003
-591.967	800.000	-0.095	-0.341
-590.952	-200.000	-0.015	-0.075
-589.938	58.157	0.236	-0.231
-588.923	-73.704	-0.207	-0.075
-587.909	-62.028	-0.073	0.030
-586.894	-200.000	0.030	0.218
-585.879	424.870	-0.138	0.296
-584.865	-200.000	0.008	0.045
-583.850	303.748	-0.115	-0.213
-582.836	-200.000	0.087	-0.424
-581.821	-43.252	0.188	0.095
-580.806	163.121	0.104	-0.146
-579.792	102.626	-0.196	0.229
-578.777	5.036	0.287	0.211
-577.763	-200.000	0.001	-0.029
-576.748	-149.828	-0.138	-0.011
-575.733	-70.618	0.228	-0.086
-574.719	-115.915	0.243	-0.045
-573.704	-190.229	-0.287	0.003
-572.690	800.000	0.022	-0.084
-571.675	-54.474	0.260	-0.118
-570.661	-69.804	-0.068	-0.026
-569.646	-118.584	-0.175	-0.031
-568.631	-200.000	-0.067	0.302
-567.617	-80.286	0.340	-0.114
-566.602	-98.541	-0.224	-0.057
-565.588	56.467	-0.271	-0.264
-564.573	91.431	0.042	0.047
-563.558	-36.440	0.187	-0.101
-562.544	204.731	-0.120	0.185
-561.529	800.000	0.055	0.154
-560.515	658.012	0.030	0.077
-559.500	145.803	0.159	0.213
-558.485	62.740	-0.191	-0.190
-557.471	-60.008	-0.223	0.095
-556.456	26.554	0.233	0.195
-555.442	-69.206	-0.156	-0.060
-554.427	-145.440	0.372	0.033
-553.412	360.334	0.118	0.236
-552.398	-200.000	-0.013	-0.319
-551.383	800.000	0.085	-0.281
-550.369	716.073	-0.193	0.512
-549.354	87.865	-0.193	0.214
-548.339	-200.000	0.020	-0.180
-547.325	-103.221	0.169	0.040
-546.310	-23.267	-0.098	-0.059
-545.296	790.727	-0.089	-0.245
-544.281	39.333	0.277	-0.248
-543.266	211.669	0.101	-0.159
-542.252	-60.353	0.438	0.186
-541.237	800.000	0.064	0.180
-540.223	95.459	-0.186	-0.211
-539.208	431.116	0.025	-0.053
-538.193	-200.000	-0.027	0.278
-537.179	800.000	0.034	0.098
-536.164	800.000	0.091	0.372
-535.150	-200.000	0.037	0.205
-534.135	800.000	-0.077	-0.214
-533.121	-18.433	-0.188	-0.117
-532.106	-200.000	-0.016	-0.075
-531.091	-200.000	0.011	-0.259
-530.077	-98.469	-0.149	-0.038
-529.062	-200.000	0.036	0.229
-528.048	418.452	-0.144	-0.308
-527.033	-120.873	0.244	-0.041
-526.018	-200.000	-0.084	0.419
-525.004	-105.529	-0.137	0.031
-523.989	-0.397	-0.227	-0.161
-522.975	-10.960	0.006	-0.004
-521.960	6.401	0.286	-0.212
-520.945	800.000	0.056	0.209
-519.931	36.910	0.154	0.136
-518.916	72.175	-0.120	-0.124
-517.902	-105.234	-0.139	0.032
-516.887	18.052	0.078	0.062
-515.872	-200.000	-0.083	-0.452
-514.858	160.523	-0.115	-0.159
-513.843	-34.455	0.134	-0.073
-512.829	-45.853	-0.245	-0.121
-511.814	81.862	-0.108	0.117
-510.799	-97.726	-0.100	-0.026
-509.785	404.424	-0.079	-0.167
-508.770	-200.000	0.007	0.078
-507.756	308.640	-0.175	-0.326
-506.741	-104.702	0.036	0.008
-505.726	-111.674	-0.164	-0.033
-504.712	-200.000	0.026	0.223
-503.697	502.881	0.134	0.310
-502.683	-200.000	0.016	-0.086
-501.668	151.794	-0.077	-0.105
-500.653	-74.200	-0.035	-0.013
-499.639	-23.111	-0.158	0.095
-498.624	800.000	0.020	-0.072
-497.610	84.386	0.313	0.341
-496.595	-46.253	0.174	-0.085
-495.581	-87.278	-0.125	-0.038
-494.566	2.287	0.103	-0.074
-493.551	-57.046	0.178	-0.078
-492.537	27.348	-0.107	-0.089
-491.522	800.000	-0.007	-0.028
-490.508	-27.648	0.162	-0.094
-489.493	-120.185	-0.208	0.035
-488.478	-12.135	0.333	0.217
-487.464	-200.000	0.020	0.358
-486.449	264.274	-0.103	0.179
-485.435	185.293	0.126	0.186
-484.420	-172.851	0.260	0.008
-483.405	-200.000	-0.017	-0.082
-482.391	-200.000	-0.004	0.185
-481.376	-19.986	-0.123	-0.076
-480.362	87.758	-0.059	0.065
-479.347	17.629	-0.074	0.059
-478.332	494.087	0.052	-0.120
-477.318	-200.000	-0.013	0.104
-476.303	21.164	-0.265	0.214
-475.289	-200.000	-0.012	0.117
-474.274	-108.993	0.141	0.030
-473.259	372.477	-0.135	-0.274
-472.245	326.077	0.084	-0.160
-471.230	365.509	0.062	0.124
-470.216	-200.000	0.017	0.104
-469.201	389.894	-0.100	-0.206
-468.186	800.000	0.068	0.190
-467.172	-123.788	0.049	0.008
-466.157	-200.000	-0.003	-0.038
-465.143	-115.976	-0.621	-0.115
-464.128	-88.190	-0.209	0.062
-463.113	800.000	-0.125	0.363
-462.099	-102.696	-0.327	0.078
-461.084	-200.000	-0.035	-0.156
-460.070	-200.000	-0.050	-0.479
-459.055	-200.000	0.011	-0.124
-458.040	78.193	-0.139	-0.148
-457.026	800.000	0.102	0.297
-456.011	-102.048	0.222	-0.053
-454.997	800.000	-0.028	-0.084
-453.982	-175.496	-0.018	0.000
-452.968	-200.000	-0.008	0.307
-451.953	78.820	-0.173	-0.185
-450.938	-100.694	-0.223	0.055
-449.924	-200.000	0.051	0.264
-448.909	-81.667	0.327	0.107
-447.895	83.893	-0.177	-0.192
-446.880	242.810	-0.031	0.052
-445.865	800.000	0.124	0.412
-444.851	-77.230	-0.333	-0.115
-443.836	-119.855	0.168	-0.029
-442.822	130.018	0.190	0.241
-441.807	40.581	0.205	-0.184
-440.792	372.953	0.139	-0.281
-439.778	-123.051	-0.309	-0.049
-438.763	9.575	0.142	0.107
-437.749	121.446	0.160	0.199
-436.734	-94.597	-0.366	0.099
-435.719	-16.722	-0.090	-0.056
-434.705	9.820	-0.139	0.105
-433.690	800.000	0.070	-0.205
-432.676	-200.000	0.057	-0.355
-431.661	94.555	0.088	0.100
-430.646	-150.658	0.275	0.021
-429.632	-200.000	-0.024	0.119
-428.617	-200.000	-0.010	0.253
-427.603	-89.795	0.345	-0.100
-426.588	197.376	-0.063	0.096
-425.573	-86.580	-0.417	0.127
-424.559	458.635	0.067	0.149
-423.544	-103.220	0.151	0.036
-422.530	147.408	-0.034	-0.045
-421.515	-109.956	-0.345	0.072
-420.500	25.626	-0.203	-0.168
-419.486	37.143	0.146	-0.129
-418.471	-158.700	-0.390	-0.022
-417.457	-200.000	-0.023	0.131
-416.442	141.878	0.061	-0.080
-415.428	75.718	0.118	-0.123
-414.413	-104.869	-0.208	-0.047
-413.398	394.747	-0.138	0.285
-412.384	-115.774	0.078	-0.015
-411.369	-101.543	0.112	-0.027
-410.355	-200.000	-0.026	0.193
-409.340	-139.963	0.025	0.003
-408.325	-61.888	0.198	-0.082
-407.311	8.748	-0.234	0.175
-406.296	800.000	0.076	-0.241
-405.282	-200.000	0.025	0.235
-404.267	-101.955	-0.170	-0.041
-403.252	222.811	-0.157	-0.251
-402.238	30.120	0.019	0.016
-401.223	16.069	-0.162	0.127
-400.209	-200.000	-0.023	-0.222
-399.194	43.528	0.169	0.153
-398.179	15.431	-0.292	0.227
-397.165	319.075	0.060	0.112
-396.150	-200.000	0.008	-0.116
-395.136	800.000	-0.078	-0.227
-394.121	-160.080	0.218	0.012
-393.106	-139.809	0.383	-0.040
-392.092	34.181	0.129	0.111
-391.077	184.007	0.062	-0.090
-390.063	-110.936	0.140	0.029
-389.048	-200.000	0.053	0.256
-388.033	800.000	-0.080	0.228
-387.019	140.981	-0.152	-0.200
-386.004	26.718	-0.329	0.274
-384.990	-141.099	0.494	0.050
-383.975	-88.857	-0.245	-0.072
-382.960	20.412	-0.115	-0.092
-381.946	-63.654	0.208	0.085
-380.931	-182.434	0.411	-0.008
-379.917	-20.675	0.054	0.033
-378.902	276.300	-0.327	-0.576
-377.888	-200.000	-0.039	-0.364
-376.873	-200.000	0.071	-0.337
-375.858	-140.577	0.276	0.028
-374.844	-71.989	0.365	-0.135
-373.829	800.000	0.072	-0.201
-372.815	-200.000	-0.009	-0.145
-371.800	-30.137	0.627	0.354
-370.785	68.631	-0.299	0.304
-369.771	-84.878	0.304	-0.095
-368.756	62.902	0.073	-0.073
-367.742	-27.679	0.189	0.109
-366.727	-55.214	-0.281	-0.125
-365.712	255.141	0.099	0.168
-364.698	72.398	0.117	-0.121
-363.683	-110.612	0.170	0.035
-362.669	-200.000	-0.030	-0.259
-361.654	-59.379	0.114	0.049
-360.639	-123.321	-0.096	0.015
-359.625	800.000	0.032	-0.132
-358.610	-200.000	0.065	0.320
-357.596	701.044	0.091	0.239
-356.581	-200.000	0.020	0.118
-355.566	-5.482	0.157	0.107
-354.552	115.385	-0.298	0.361
-353.537	-129.497	0.122	0.017
-352.523	-130.350	0.241	-0.032
-351.508	-154.019	0.240	-0.016
-350.493	-26.968	-0.129	-0.074
-349.479	177.358	-0.118	-0.170
-348.464	800.000	-0.087	0.336
-347.450	-200.000	0.008	0.123
-346.435	-33.149	0.221	0.122
-345.420	501.415	0.075	0.172
-344.406	-113.421	-0.210	0.041
-343.391	-69.087	-0.117	0.045
-342.377	800.000	0.039	-0.135
-341.362	-50.684	0.198	0.092
-340.348	111.724	0.109	0.131
-339.333	427.909	-0.019	0.042
-338.318	88.837	-0.181	0.199
-337.304	-3.715	-0.262	0.180
-336.289	34.293	-0.137	0.118
-335.275	290.141	-0.109	0.197
-334.260	29.504	0.149	0.125
-333.245	256.116	0.063	0.107
-332.231	464.551	0.058	-0.129
-331.216	-10.985	-0.090	-0.059
-330.202	-27.677	-0.048	0.028
-329.187	-200.000	-0.045	-0.327
-328.172	80.496	0.227	-0.242
-327.158	-28.184	0.262	-0.150
-326.143	299.159	-0.030	0.055
-325.129	140.271	0.319	-0.416
-324.114	-21.777	0.237	-0.143
-323.099	-54.651	-0.083	0.037
-322.085	31.586	-0.150	0.127
-321.070	369.418	0.015	0.030
-320.056	-51.320	0.363	0.168
-319.041	-200.000	-0.017	-0.191
-318.026	413.354	0.174	-0.367
-317.012	-139.797	0.230	-0.024
-315.997	-10.573	0.021	-0.014
-314.983	-81.458	-0.087	0.028
-313.968	800.000	0.054	-0.163
-312.953	-200.000	-0.004	-0.102
-311.939	-101.584	0.242	-0.058
-310.924	354.433	0.214	-0.421
-309.910	-15.245	0.344	0.218
-308.895	-63.843	-0.183	0.074
-307.880	228.334	0.113	-0.182
-306.866	-27.550	-0.126	-0.072
-305.851	86.046	0.094	0.102
-304.837	276.550	-0.113	-0.198
-303.822	482.373	-0.094	0.211
-302.807	172.899	0.210	0.299
-301.793	-87.353	0.076	-0.023
-300.778	800.000	-0.040	0.120
-299.764	-70.100	-0.355	0.134
-298.749	-80.825	0.071	0.023
-297.735	159.536	-0.241	-0.332
-296.720	-86.093	-0.150	0.046
-295.705	-95.784	0.119	0.031
-294.691	319.750	0.087	-0.164
-293.676	320.789	0.268	0.504
-292.662	180.869	-0.089	0.130
-291.647	149.657	-0.273	0.366
-290.632	-55.412	0.166	0.074
-289.618	311.812	0.076	-0.140
-288.603	800.000	0.028	0.098
-287.589	151.943	-0.085	-0.115
-286.574	-87.457	0.230	-0.069
-285.559	-18.114	-0.152	0.094
-284.545	446.370	0.183	-0.398
-283.530	-54.689	-0.216	-0.097
-282.516	-152.728	0.222	0.016
-281.501	63.432	-0.168	-0.167
-280.486	257.811	0.128	-0.218
-279.472	-9.017	-0.230	0.152
-278.457	48.417	0.221	-0.204
-277.443	800.000	0.060	0.169
-276.428	-30.008	0.078	0.044
-275.413	-51.855	0.210	-0.097
-274.399	-133.744	0.238	-0.029
-273.384	-200.000	0.032	0.232
-272.370	-28.950	-0.275	0.156
-271.355	333.429	0.116	0.222
-270.340	-116.737	-0.209	-0.038
-269.326	-44.680	0.284	-0.140
-268.311	-155.388	0.386	0.025
-267.297	362.292	-0.110	-0.219
-266.282	-90.597	0.186	-0.053
-265.267	-200.000	-0.017	0.105
-264.253	-97.207	0.071	0.018
-263.238	-52.550	0.194	-0.088
-262.224	-25.128	0.133	0.078
-261.209	-20.254	-0.357	0.217
-260.195	800.000	-0.053	0.218
-259.180	-200.000	0.026	0.204
-258.165	800.000	0.102	0.282
-257.151	-200.000	-0.005	0.173
-256.136	-34.831	0.188	0.102
-255.122	28.477	0.321	-0.268
-254.107	120.885	0.124	-0.152
-253.092	-26.141	-0.062	-0.036
-252.078	800.000	-0.059	0.239
-251.063	95.595	-0.154	0.174
-250.049	-200.000	-0.060	0.437
-249.034	364.128	0.133	0.264
-248.019	-200.000	-0.042	-0.326
-247.005	151.766	0.163	-0.220
-245.990	-97.778	0.344	0.088
-244.976	-200.000	-0.047	0.253
-243.961	-8.751	0.207	0.137
-242.946	165.671	-0.131	0.182
-241.932	177.036	-0.174	0.250
-240.917	800.000	0.041	-0.132
-239.903	62.324	-0.096	0.095
-238.888	-200.000	-0.024	0.372
-237.873	76.678	-0.185	-0.193
-236.859	84.870	-0.194	0.210
-235.844	-200.000	0.040	-0.321
-234.830	-87.517	-0.174	-0.052
-233.815	-82.588	0.466	0.149
-232.800	63.726	0.297	-0.295
-231.786	23.881	-0.112	0.091
-230.771	-124.479	-0.238	-0.036
-229.757	-27.157	0.251	0.144
-228.742	-19.297	0.211	-0.129
-227.727	-92.321	-0.123	-0.034
-226.713	-200.000	-0.030	-0.168
-225.698	697.181	-0.012	0.030
-224.684	-200.000	-0.003	0.089
-223.669	457.163	-0.128	0.281
-222.655	-91.885	0.099	0.028
-221.640	-77.596	-0.221	0.076
-220.625	-200.000	0.009	-0.068
-219.611	-200.000	-0.005	0.108
-218.596	-38.663	0.251	-0.130
-217.582	82.669	0.170	0.183
-216.567	-200.000	0.002	-0.114
-215.552	-28.086	-0.250	0.143
-214.538	-157.749	0.242	-0.014
-213.523	112.176	-0.155	-0.185
-212.509	730.140	-0.084	0.220
-211.494	-75.292	-0.285	-0.100
-210.479	-200.000	-0.010	0.264
-209.465	-179.414	-0.118	0.003
-208.450	-183.100	0.159	-0.003
-207.436	-57.527	0.188	-0.081
-206.421	-5.402	-0.129	-0.088
-205.406	-104.083	-0.139	0.032
-204.392	140.041	-0.107	-0.139
-203.377	182.202	0.114	0.166
-202.363	-55.229	0.196	0.087
-201.348	-33.620	0.081	0.044
-200.333	-163.661	-0.222	0.010
-199.319	-200.000	0.035	0.169
-198.304	677.074	0.081	-0.206
-197.290	92.161	-0.202	-0.224
-196.275	800.000	-0.051	0.175
-195.260	-90.462	0.243	0.069
-194.246	-127.744	-0.101	0.014
-193.231	-200.000	-0.057	-0.505
-192.217	59.574	-0.179	-0.174
-191.202	43.610	-0.092	-0.083
-190.187	-47.376	0.375	0.180
-189.173	800.000	-0.066	0.214
-188.158	547.743	-0.067	-0.158
-187.144	-51.170	0.160	0.074
-186.129	-2.365	0.280	0.193
-185.114	-5.918	0.020	0.013
-184.100	-128.092	-0.092	0.013
-183.085	-21.973	0.063	-0.037
-182.071	-5.240	-0.108	0.073
-181.056	-82.311	-0.164	0.053
-180.042	686.464	0.046	-0.118
-179.027	138.173	-0.175	-0.225
-178.012	-79.500	0.395	0.131
-176.998	-200.000	-0.040	-0.252
-175.983	-40.175	0.083	-0.042
-174.969	663.795	-0.060	0.151
-173.954	-112.514	0.083	-0.016
-172.939	-129.766	0.203	0.028
-171.925	800.000	0.069	-0.211
-170.910	-200.000	0.009	0.081
-169.896	-2.550	-0.425	-0.293
-168.881	-9.727	-0.134	-0.088
-167.866	-75.426	-0.247	-0.087
-166.852	-111.123	-0.166	-0.034
-165.837	-139.143	0.045	0.005
-164.823	-200.000	-0.016	-0.143
-163.808	-97.901	-0.226	-0.057
-162.793	18.062	-0.216	0.169
-161.779	226.127	-0.150	0.239
-160.764	-113.611	0.430	0.083
-159.750	106.343	0.024	-0.027
-158.735	-39.025	-0.312	-0.162
-157.720	2.143	-0.146	0.104
-156.706	-200.000	0.053	0.285
-155.691	800.000	-0.036	-0.139
-154.677	-47.107	-0.086	-0.041
-153.662	-51.207	-0.279	-0.129
-152.647	101.757	0.094	-0.108
-151.633	34.258	-0.152	-0.130
-150.618	672.310	0.126	0.322
-149.604	-179.612	0.442	-0.009
-148.589	-63.497	-0.204	-0.082
-147.574	-200.000	0.030	0.164
-146.560	-150.880	-0.163	-0.012
-145.545	147.182	0.156	0.206
-144.531	-200.000	-0.025	0.131
-143.516	-200.000	0.020	0.213
-142.502	51.852	-0.321	0.301
-141.487	-154.173	-0.188	0.013
-140.472	195.793	-0.023	0.035
-139.458	31.954	-0.052	-0.044
-138.443	60.452	-0.225	-0.219
-137.429	-140.108	0.327	-0.034
-136.414	-11.370	0.193	-0.125
-135.399	308.646	0.080	0.146
-134.385	-200.000	0.080	0.475
-133.370	17.850	-0.146	-0.114
-132.356	-200.000	0.021	-0.120
-131.341	-145.806	0.142	0.012
-130.326	800.000	-0.084	-0.327
-129.312	-200.000	-0.016	-0.092
-128.297	-89.613	0.289	0.083
-127.283	800.000	-0.107	-0.292
-126.268	-118.585	0.301	0.052
-125.253	188.895	0.119	0.175
-124.239	-164.801	0.275	-0.012
-123.224	-200.000	0.046	0.240
-122.210	-25.975	-0.340	0.197
