DTS Sentinel unit serial number:	SN413079Multiplexer serial number:	ORYXHardware model number:	OX4-SRSoftware version number:	ORYX F/W v4.00 Oryx Data Collector v3.7.2.0data status	okinstallation	princeton_trtdifferential loss correction	single-endedforward channel	channel 1reverse channel	N/Adate	2019/09/14time	07:30:35forward acquisition time	60.00reverse acquisition time	0.00gamma	496.2192k internal	0.2336k external	0.2336temperature offset calibration	1.0080default loss term (dB/km)	0.3790temperature slope calibration	1.0000multiplexer offset coefficient	1.0000multiplexer slope coefficient	1.0000fibre end	0.00T internal ref (°C)	26.19T ext. ref 1 (°C)	3.46T ext. ref 2 (°C)	21.17length (m)	temperature (°C)	Stokes	anti-Stokes-747.200	-200.000	-0.032	0.155
-746.185	-37.923	0.096	0.051
-745.171	-149.889	-0.054	-0.004
-744.156	724.202	0.103	0.274
-743.142	-200.000	0.026	0.408
-742.127	117.369	0.146	-0.180
-741.112	800.000	-0.072	0.262
-740.098	-79.654	-0.103	0.035
-739.083	290.759	-0.041	-0.075
-738.069	-60.691	0.065	0.028
-737.054	-25.473	-0.313	0.185
-736.039	112.858	0.039	0.048
-735.025	363.256	0.072	0.145
-734.010	5.928	-0.300	-0.223
-732.996	149.652	0.142	0.193
-731.981	185.156	-0.033	-0.049
-730.966	800.000	-0.044	-0.154
-729.952	-57.237	-0.356	-0.157
-728.937	-28.714	-0.226	0.130
-727.923	800.000	-0.016	-0.056
-726.908	-200.000	-0.048	-0.366
-725.894	-200.000	0.063	-0.342
-724.879	9.097	0.108	0.082
-723.864	103.860	-0.196	0.231
-722.850	-120.563	-0.186	-0.032
-721.835	52.390	0.245	-0.234
-720.821	-200.000	-0.020	-0.100
-719.806	12.873	-0.115	-0.089
-718.791	800.000	-0.048	-0.137
-717.777	800.000	0.068	-0.269
-716.762	62.335	-0.065	-0.065
-715.748	-115.710	0.082	-0.015
-714.733	449.469	0.083	0.183
-713.718	-200.000	-0.027	-0.509
-712.704	677.876	-0.098	0.257
-711.689	311.233	-0.084	0.157
-710.675	13.773	0.248	0.193
-709.660	298.457	0.074	-0.137
-708.645	800.000	-0.072	-0.227
-707.631	-72.914	0.195	0.072
-706.616	19.316	0.210	-0.169
-705.602	-51.633	0.234	0.109
-704.587	-109.769	0.234	0.049
-703.572	166.453	0.239	0.340
-702.558	-200.000	-0.074	0.334
-701.543	312.654	-0.124	-0.234
-700.529	-75.647	0.326	-0.116
-699.514	-78.369	-0.278	-0.096
-698.499	-125.225	-0.355	-0.054
-697.485	369.911	-0.148	0.301
-696.470	537.097	0.049	0.116
-695.456	-53.792	-0.067	-0.031
-694.441	68.093	0.139	0.143
-693.426	800.000	-0.026	-0.113
-692.412	17.624	0.179	-0.143
-691.397	-200.000	-0.027	-0.149
-690.383	-200.000	-0.068	-0.303
-689.368	-91.318	-0.230	0.066
-688.354	-160.510	0.073	0.004
-687.339	-12.774	0.355	-0.232
-686.324	44.603	-0.257	-0.236
-685.310	419.961	-0.135	-0.290
-684.295	-200.000	0.051	-0.263
-683.281	17.182	-0.127	-0.101
-682.266	-200.000	-0.056	-0.247
-681.251	-160.222	-0.267	-0.014
-680.237	-50.574	0.406	-0.192
-679.222	-200.000	-0.033	0.306
-678.208	130.948	-0.212	0.273
-677.193	-200.000	-0.016	0.237
-676.178	277.074	0.202	-0.361
-675.164	-200.000	0.257	-0.001
-674.149	0.821	-0.096	-0.069
-673.135	-158.662	-0.164	0.009
-672.120	-19.764	-0.106	-0.066
-671.105	447.598	-0.075	-0.164
-670.091	56.639	0.282	-0.275
-669.076	268.965	0.108	-0.190
-668.062	633.190	-0.064	0.164
-667.047	168.886	0.091	-0.130
-666.032	142.290	0.087	0.116
-665.018	-174.679	-0.478	-0.014
-664.003	34.680	-0.110	0.096
-662.989	800.000	0.051	-0.194
-661.974	95.755	-0.180	-0.205
-660.959	-200.000	0.023	-0.162
-659.945	-54.118	0.347	-0.158
-658.930	134.532	-0.099	-0.129
-657.916	-17.737	-0.157	-0.099
-656.901	-6.308	-0.162	-0.111
-655.886	-200.000	0.015	-0.329
-654.872	-200.000	-0.066	0.316
-653.857	-90.136	-0.265	-0.077
-652.843	372.700	0.144	-0.292
-651.828	-11.366	-0.081	-0.053
-650.814	44.427	0.281	0.258
-649.799	101.451	0.032	0.037
-648.784	-140.590	-0.045	-0.005
-647.770	68.599	0.094	-0.097
-646.755	249.980	0.175	0.297
-645.741	-30.803	0.382	0.216
-644.726	-200.000	0.021	-0.338
-643.711	800.000	-0.030	-0.113
-642.697	12.741	0.186	-0.144
-641.682	-22.126	0.077	-0.046
-640.668	-200.000	0.007	0.102
-639.653	235.899	0.071	0.118
-638.638	-98.683	-0.272	-0.069
-637.624	-53.712	0.299	0.137
-636.609	15.956	-0.166	-0.131
-635.595	-12.382	-0.361	-0.236
-634.580	-55.604	-0.272	-0.122
-633.565	-111.768	0.364	0.074
-632.551	47.186	0.084	0.078
-631.536	-95.803	0.172	-0.046
-630.522	79.265	0.232	0.249
-629.507	-71.629	0.201	0.075
-628.492	33.156	-0.140	-0.121
-627.478	-200.000	-0.048	0.374
-626.463	303.321	0.122	0.226
-625.449	800.000	0.107	-0.318
-624.434	90.932	0.227	0.255
-623.419	-47.349	-0.234	-0.114
-622.405	800.000	-0.015	0.067
-621.390	800.000	0.052	-0.217
-620.376	-200.000	-0.016	-0.258
-619.361	-157.998	0.107	0.006
-618.346	13.705	-0.113	0.088
-617.332	-40.688	-0.098	0.051
-616.317	55.679	-0.182	0.177
-615.303	419.842	-0.067	-0.143
-614.288	265.857	0.121	-0.211
-613.273	-125.668	-0.154	-0.023
-612.259	7.784	0.082	-0.061
-611.244	-69.803	-0.357	-0.136
-610.230	357.975	0.037	-0.074
-609.215	-128.163	-0.293	-0.042
-608.201	-112.138	0.112	0.023
-607.186	-200.000	0.004	-0.030
-606.171	-51.933	-0.125	0.058
-605.157	12.582	0.267	0.206
-604.142	-152.067	-0.228	-0.017
-603.128	-107.649	0.234	0.051
-602.113	-23.430	-0.049	0.029
-601.098	-53.541	-0.186	0.085
-600.084	119.981	-0.108	0.134
-599.069	140.247	0.150	-0.198
-598.055	-200.000	-0.008	0.239
-597.040	180.400	-0.067	0.097
-596.025	7.341	-0.132	0.099
-595.011	4.157	-0.104	0.076
-593.996	37.838	-0.317	-0.281
-592.982	-33.611	-0.364	0.201
-591.967	277.458	0.071	0.127
-590.952	172.873	0.041	0.059
-589.938	479.147	-0.068	-0.153
-588.923	800.000	0.027	0.075
-587.909	271.002	-0.090	-0.158
-586.894	-134.722	0.160	0.019
-585.879	26.335	-0.228	0.190
-584.865	96.715	-0.043	-0.049
-583.850	174.933	0.049	-0.071
-582.836	-150.030	-0.217	-0.017
-581.821	-111.288	0.338	0.069
-580.806	-200.000	-0.017	-0.351
-579.792	-200.000	-0.033	0.239
-578.777	-39.158	-0.166	0.087
-577.763	73.069	-0.298	-0.311
-576.748	-81.823	-0.250	-0.082
-575.733	-200.000	-0.027	0.316
-574.719	-38.654	0.306	-0.161
-573.704	-113.918	-0.133	0.026
-572.690	-200.000	-0.010	0.422
-571.675	-58.448	0.307	-0.133
-570.661	46.056	0.194	0.179
-569.646	458.217	-0.079	0.175
-568.631	-200.000	-0.026	-0.334
-567.617	49.565	-0.178	-0.167
-566.602	-46.450	0.218	0.107
-565.588	207.730	-0.179	-0.278
-564.573	-200.000	0.014	-0.167
-563.558	-80.233	0.141	-0.047
-562.544	177.900	-0.189	0.275
-561.529	-200.000	-0.029	-0.159
-560.515	-156.204	-0.122	0.008
-559.500	-146.811	0.307	-0.026
-558.485	-113.834	-0.065	0.013
-557.471	-200.000	0.013	0.065
-556.456	800.000	-0.079	0.223
-555.442	352.301	0.107	0.212
-554.427	364.109	-0.041	0.081
-553.412	-129.361	0.274	0.038
-552.398	-142.866	-0.223	-0.022
-551.383	-134.361	0.072	-0.009
-550.369	-141.163	-0.269	0.027
-549.354	800.000	-0.044	-0.147
-548.339	-200.000	-0.064	-0.326
-547.325	36.085	-0.075	0.066
-546.310	249.452	0.155	0.263
-545.296	-200.000	0.032	0.240
-544.281	-76.587	0.106	-0.037
-543.266	-146.841	-0.323	-0.028
-542.252	34.300	0.408	-0.355
-541.237	-134.032	-0.137	-0.017
-540.223	-200.000	0.004	0.141
-539.208	352.560	0.152	0.301
-538.193	388.327	-0.108	-0.222
-537.179	-59.151	-0.114	-0.049
-536.164	-59.572	0.176	0.075
-535.150	-200.000	-0.043	-0.275
-534.135	302.652	-0.056	0.103
-533.121	124.450	-0.224	0.280
-532.106	200.430	-0.174	0.267
-531.091	219.990	-0.109	0.174
-530.077	-36.089	0.089	-0.048
-529.062	800.000	-0.084	0.231
-528.048	-200.000	-0.038	-0.213
-527.033	-134.824	-0.168	-0.020
-526.018	120.732	-0.173	0.214
-525.004	-200.000	-0.052	-0.295
-523.989	635.345	-0.058	0.146
-522.975	-22.514	-0.193	0.116
-521.960	62.942	0.278	-0.277
-520.945	800.000	-0.043	-0.168
-519.931	30.782	-0.043	0.037
-518.916	47.648	-0.286	0.265
-517.902	-76.398	0.205	-0.072
-516.887	800.000	-0.088	-0.243
-515.872	-37.511	0.420	-0.223
-514.858	-200.000	0.022	-0.199
-513.843	477.289	0.134	-0.302
-512.829	-28.077	0.239	0.137
-511.814	-200.000	-0.014	-0.069
-510.799	800.000	0.126	-0.474
-509.785	273.329	-0.094	-0.165
-508.770	486.016	0.101	-0.228
-507.756	126.813	0.213	-0.269
-506.741	282.586	-0.045	-0.080
-505.726	-200.000	0.048	-0.314
-504.712	-87.056	0.148	-0.045
-503.697	-37.774	0.206	0.109
-502.683	3.198	0.191	-0.139
-501.668	-9.243	-0.261	0.173
-500.653	514.369	0.061	0.141
-499.639	800.000	-0.040	0.165
-498.624	-122.426	-0.152	0.025
-497.610	3.125	0.153	-0.111
-496.595	-100.909	0.455	-0.111
-495.581	-200.000	-0.003	-0.078
-494.566	-19.179	-0.241	0.149
-493.551	-17.457	0.250	0.156
-492.537	-141.799	0.336	0.033
-491.522	-49.782	0.287	0.136
-490.508	-200.000	-0.104	0.538
-489.493	135.102	0.149	0.193
-488.478	800.000	-0.048	-0.156
-487.464	800.000	-0.063	-0.223
-486.449	-87.588	-0.381	0.114
-485.435	-71.607	-0.178	-0.066
-484.420	-200.000	-0.012	-0.125
-483.405	-200.000	0.038	-0.467
-482.391	750.512	0.109	0.291
-481.376	-157.560	0.231	-0.014
-480.362	122.304	-0.190	-0.236
-479.347	-200.000	-0.023	-0.253
-478.332	-74.991	0.256	0.091
-477.318	-145.131	0.228	-0.021
-476.303	15.484	-0.049	-0.039
-475.289	790.572	-0.070	0.191
-474.274	-200.000	-0.017	-0.235
-473.259	-30.571	-0.089	-0.050
-472.245	-147.638	0.095	-0.008
-471.230	-68.820	0.371	-0.143
-470.216	202.332	0.086	0.132
-469.201	103.873	-0.128	0.149
-468.186	-171.799	0.098	0.003
-467.172	800.000	-0.025	0.083
-466.157	9.309	0.241	0.181
-465.143	-31.817	-0.097	0.054
-464.128	-200.000	0.044	-0.280
-463.113	43.008	-0.147	-0.133
-462.099	-157.632	-0.229	0.014
-461.084	-89.414	-0.172	0.050
-460.070	-200.000	0.028	0.228
-459.055	276.136	-0.194	0.342
-458.040	79.396	0.146	-0.156
-457.026	-73.245	-0.066	0.024
-456.011	74.043	-0.099	0.103
-454.997	402.666	-0.015	-0.031
-453.982	-62.719	-0.165	0.068
-452.968	125.087	-0.173	-0.216
-451.953	447.924	0.072	-0.158
-450.938	-21.579	0.044	0.026
-449.924	-44.004	-0.175	-0.087
-448.909	800.000	0.031	0.100
-447.895	83.359	0.020	-0.022
-446.880	23.232	-0.131	-0.106
-445.865	5.151	0.225	0.165
-444.851	-98.206	-0.109	-0.028
-443.836	-200.000	0.059	-0.342
-442.822	-85.567	-0.219	0.068
-441.807	5.571	-0.010	-0.007
-440.792	135.380	0.085	0.110
-439.778	800.000	-0.031	0.109
-438.763	-6.760	0.313	-0.211
-437.749	239.080	0.024	0.040
-436.734	155.362	-0.125	-0.171
-435.719	541.234	-0.108	0.255
-434.705	413.106	0.273	-0.576
-433.690	800.000	0.046	-0.174
-432.676	-200.000	-0.029	0.164
-431.661	15.532	-0.197	0.154
-430.646	800.000	-0.099	-0.329
-429.632	-200.000	0.005	-0.042
-428.617	-131.145	-0.081	-0.011
-427.603	-107.270	0.293	-0.064
-426.588	1.230	0.041	0.029
-425.573	60.337	0.152	0.149
-424.559	-81.912	-0.089	0.029
-423.544	739.431	0.113	0.302
-422.530	-200.000	-0.011	-0.185
-421.515	800.000	0.100	0.318
-420.500	91.086	0.207	-0.230
-419.486	-71.624	0.246	0.091
-418.471	283.014	-0.153	-0.272
-417.457	800.000	-0.065	0.219
-416.442	-200.000	-0.012	0.078
-415.428	-200.000	-0.004	0.209
-414.413	-76.461	0.205	0.072
-413.398	800.000	-0.064	-0.238
-412.384	260.733	-0.157	-0.270
-411.369	83.521	0.170	0.183
-410.355	-200.000	-0.036	0.389
-409.340	-200.000	-0.010	-0.098
-408.325	-200.000	-0.019	-0.214
-407.311	-50.343	-0.325	0.152
-406.296	800.000	0.022	-0.074
-405.282	-200.000	-0.061	-0.379
-404.267	800.000	-0.079	-0.262
-403.252	-106.945	0.151	-0.033
-402.238	800.000	-0.079	0.293
-401.223	57.375	-0.028	-0.027
-400.209	-96.674	0.172	-0.045
-399.194	-61.378	-0.244	0.102
-398.179	-51.049	0.155	0.072
-397.165	467.551	0.028	0.062
-396.150	189.150	0.118	0.175
-395.136	91.791	-0.086	-0.095
-394.121	-23.826	-0.129	-0.077
-393.106	200.968	-0.075	-0.115
-392.092	142.835	0.229	0.301
-391.077	800.000	-0.076	0.279
-390.063	-113.175	-0.192	0.037
-389.048	342.682	0.052	-0.101
-388.033	-134.950	-0.190	0.023
-387.019	-6.292	0.234	0.158
-386.004	800.000	0.060	-0.188
-384.990	-200.000	-0.025	0.189
-383.975	-134.109	-0.128	-0.016
-382.960	-200.000	0.027	0.128
-381.946	-108.148	0.193	0.041
-380.931	-181.840	-0.318	-0.006
-379.917	-181.750	-0.229	0.004
-378.902	-100.270	0.230	0.057
-377.888	-118.630	0.173	0.030
-376.873	-175.004	0.363	-0.010
-375.858	9.564	0.187	0.140
-374.844	83.570	-0.251	-0.271
-373.829	19.532	0.057	-0.045
-372.815	-67.678	0.212	0.082
-371.800	565.304	0.150	0.360
-370.785	-57.903	-0.103	-0.044
-369.771	-144.922	0.174	-0.016
-368.756	262.611	0.145	-0.250
-367.742	-101.313	-0.339	-0.082
-366.727	-200.000	0.024	-0.118
-365.712	144.914	-0.077	-0.102
-364.698	-95.110	0.062	0.017
-363.683	-200.000	0.004	-0.058
-362.669	-130.843	-0.120	-0.016
-361.654	-23.221	0.117	0.069
-360.639	-99.988	0.183	-0.045
-359.625	-88.482	-0.101	-0.030
-358.610	494.488	-0.052	-0.118
-357.596	82.762	-0.183	0.196
-356.581	-200.000	-0.013	-0.080
-355.566	63.897	0.243	-0.242
-354.552	27.075	-0.108	-0.090
-353.537	-88.967	-0.177	0.052
-352.523	704.257	-0.056	-0.146
-351.508	161.069	-0.054	-0.075
-350.493	-85.488	-0.119	-0.037
-349.479	-28.369	-0.122	-0.070
-348.464	-89.938	-0.318	-0.092
-347.450	162.467	-0.092	0.127
-346.435	800.000	-0.060	0.176
-345.420	-154.197	-0.342	-0.023
-344.406	247.792	0.099	0.166
-343.391	353.139	-0.086	-0.169
-342.377	214.986	-0.140	-0.220
-341.362	-82.512	0.174	0.056
-340.348	-92.337	0.221	0.062
-339.333	10.135	0.145	-0.109
-338.318	797.700	0.052	0.143
-337.304	202.886	0.094	-0.143
-336.289	-127.378	0.448	-0.065
-335.275	57.895	0.144	0.139
-334.260	51.378	0.123	0.116
-333.245	152.248	0.042	-0.056
-332.231	-200.000	0.045	-0.199
-331.216	237.415	0.126	0.206
-330.202	-200.000	0.016	-0.192
-329.187	57.975	0.204	0.197
-328.172	507.219	0.060	0.138
-327.158	-16.842	-0.112	0.070
-326.143	59.782	-0.042	-0.041
-325.129	-144.782	-0.148	0.013
-324.114	339.524	0.105	-0.202
-323.099	-151.142	0.163	0.012
-322.085	1.493	0.122	-0.087
-321.070	-153.404	0.105	0.007
-320.056	123.986	0.113	0.140
-319.041	-65.467	0.041	0.016
-318.026	-65.131	-0.173	-0.069
-317.012	-200.000	0.024	0.250
-315.997	800.000	-0.037	0.131
-314.983	-200.000	-0.044	-0.190
-313.968	-66.048	0.139	-0.055
-312.953	-76.768	0.195	0.067
-311.939	-70.032	-0.102	-0.038
-310.924	66.181	-0.143	0.143
-309.910	-147.120	0.388	0.033
-308.895	-73.120	-0.333	-0.121
-307.880	52.387	-0.200	-0.189
-306.866	800.000	0.046	0.142
-305.851	-130.714	-0.425	0.056
-304.837	800.000	0.130	0.358
-303.822	175.524	-0.202	-0.288
-302.807	0.203	-0.188	-0.132
-301.793	319.461	-0.045	0.084
-300.778	-77.781	0.165	0.056
-299.764	-200.000	-0.012	0.176
-298.749	-71.521	-0.152	-0.056
-297.735	361.485	0.128	-0.253
-296.720	800.000	-0.075	0.246
-295.705	-51.415	0.254	-0.117
-294.691	554.106	0.022	-0.053
-293.676	369.745	-0.046	-0.091
-292.662	-162.298	0.105	-0.005
-291.647	-87.381	0.211	0.063
-290.632	-200.000	0.022	0.261
-289.618	347.195	-0.074	-0.144
-288.603	-68.809	0.151	-0.058
-287.589	800.000	-0.065	0.204
-286.574	-50.737	0.546	-0.254
-285.559	48.784	0.080	-0.074
-284.545	-30.039	0.139	0.078
-283.530	-200.000	0.003	-0.040
-282.516	-200.000	-0.030	0.266
-281.501	3.295	-0.162	0.116
-280.486	-22.174	0.315	0.189
-279.472	105.288	0.132	0.154
-278.457	56.111	-0.172	-0.165
-277.443	-87.045	0.072	-0.022
-276.428	543.471	-0.102	0.241
-275.413	319.923	-0.031	0.057
-274.399	0.336	-0.360	0.253
-273.384	-60.566	0.530	0.222
-272.370	-200.000	0.005	-0.061
-271.355	-200.000	0.012	0.093
-270.340	-133.042	-0.217	-0.027
-269.326	328.623	0.093	0.176
-268.311	514.301	-0.146	-0.336
-267.297	-106.183	0.194	0.043
-266.282	-152.261	-0.089	-0.006
-265.267	540.124	-0.110	-0.258
-264.253	-104.040	-0.400	-0.092
-263.238	-200.000	0.007	-0.035
-262.224	-200.000	-0.035	0.252
-261.209	413.656	0.124	0.260
-260.195	126.686	0.122	0.153
-259.180	-31.492	-0.178	-0.099
-258.165	49.592	0.248	-0.230
-257.151	119.082	0.212	0.259
-256.136	108.437	-0.309	0.363
-255.122	144.716	-0.121	0.159
-254.107	-49.160	-0.206	0.097
-253.092	154.260	-0.169	0.228
-252.078	101.026	0.197	-0.226
-251.063	-125.472	0.199	-0.030
-250.049	11.024	0.181	0.136
-249.034	-13.311	0.193	0.123
-248.019	-46.514	0.184	0.089
-247.005	-68.059	-0.279	-0.107
-245.990	-191.728	0.402	0.004
-244.976	-45.804	-0.218	-0.106
-243.961	-200.000	-0.394	-0.001
-242.946	86.993	0.051	-0.055
-241.932	17.697	0.078	0.061
-240.917	355.713	0.035	-0.069
-239.903	-97.401	-0.156	0.040
-238.888	31.486	-0.073	0.062
-237.873	800.000	-0.101	0.290
-236.859	800.000	-0.117	0.382
-235.844	-142.823	0.272	-0.026
-234.830	-3.331	0.085	-0.058
-233.815	-41.338	0.313	-0.159
-232.800	89.653	-0.131	0.144
-231.786	188.517	-0.160	-0.236
-230.771	-159.107	-0.095	-0.005
-229.757	-96.179	0.131	-0.034
-228.742	-94.092	-0.320	-0.086
-227.727	181.779	-0.173	0.251
-226.713	3.624	-0.005	-0.004
-225.698	-102.233	-0.354	0.084
-224.684	39.337	0.054	-0.047
-223.669	246.863	-0.040	0.066
-222.655	-200.000	-0.053	0.273
-221.640	567.809	0.099	-0.236
-220.625	-200.000	0.018	-0.190
-219.611	85.867	-0.136	0.147
-218.596	234.634	0.082	-0.132
-217.582	3.527	-0.140	0.100
-216.567	-148.019	0.210	-0.017
-215.552	-200.000	-0.056	-0.308
-214.538	-200.000	-0.040	0.194
-213.523	-69.742	0.137	-0.052
-212.509	-200.000	0.008	-0.093
-211.494	-30.838	-0.399	0.222
-210.479	-108.658	-0.245	0.052
-209.465	-166.877	0.238	-0.010
-208.450	-200.000	-0.008	-0.359
-207.436	49.122	0.079	-0.073
-206.421	-200.000	-0.038	-0.481
-205.406	-68.546	-0.168	-0.064
-204.392	-200.000	-0.025	0.136
-203.377	-200.000	0.044	0.228
-202.363	800.000	-0.041	0.124
-201.348	-200.000	-0.036	-0.176
-200.333	800.000	0.064	-0.197
-199.319	800.000	-0.009	-0.029
-198.304	-200.000	0.018	-0.362
-197.290	-162.697	-0.098	-0.005
-196.275	-63.293	0.212	0.086
-195.260	-126.337	-0.309	0.045
-194.246	235.770	-0.095	-0.155
-193.231	-5.429	-0.195	-0.131
-192.217	-31.433	-0.019	0.010
-191.202	800.000	-0.077	-0.293
-190.187	2.026	0.167	-0.119
-189.173	518.641	-0.043	0.098
-188.158	255.669	0.088	0.148
-187.144	346.398	-0.094	-0.181
-186.129	-200.000	0.014	-0.146
-185.114	162.359	0.149	-0.206
-184.100	44.945	-0.159	-0.144
-183.085	114.419	0.030	0.036
-182.071	-20.234	0.311	-0.188
-181.056	600.868	0.070	-0.171
-180.042	84.055	-0.220	-0.236
-179.027	-200.000	0.049	0.223
-178.012	63.132	0.028	0.027
-176.998	-200.000	0.003	-0.175
-175.983	83.838	0.178	0.190
-174.969	72.561	-0.156	-0.160
-173.954	-86.333	-0.318	-0.096
-172.939	-118.524	0.225	0.039
-171.925	800.000	0.015	-0.063
-170.910	800.000	-0.034	-0.120
-169.896	-31.317	0.287	0.159
-168.881	-200.000	0.029	0.495
-167.866	-83.956	-0.168	0.052
-166.852	49.206	0.290	0.268
-165.837	82.585	0.166	0.177
-164.823	800.000	-0.029	0.108
-163.808	-173.840	0.176	-0.005
-162.793	300.368	-0.181	0.328
-161.779	-34.954	-0.280	0.150
-160.764	-33.365	-0.160	0.087
-159.750	231.455	-0.065	0.105
-158.735	266.456	-0.153	-0.262
-157.720	95.694	-0.083	-0.093
-156.706	114.451	0.122	-0.146
-155.691	-200.000	0.060	-0.325
-154.677	800.000	-0.094	0.275
-153.662	171.944	-0.220	0.310
-152.647	356.383	-0.052	0.101
-151.633	-200.000	0.000	-0.129
-150.618	-43.870	-0.277	0.137
-149.604	3.625	0.187	0.134
-148.589	800.000	-0.081	-0.235
-147.574	2.909	-0.361	0.257
-146.560	-180.879	0.170	-0.003
-145.545	-86.175	-0.280	0.085
-144.531	87.993	0.070	0.076
-143.516	-64.009	-0.138	-0.055
-142.502	-200.000	-0.032	0.560
-141.487	342.983	0.121	0.232
-140.472	-20.819	0.213	-0.128
-139.458	-48.399	0.468	0.221
-138.443	89.841	0.146	-0.160
-137.429	348.313	-0.062	-0.120
-136.414	453.113	-0.130	0.281
-135.399	186.128	-0.103	0.151
-134.385	-33.250	-0.316	-0.172
-133.370	23.791	0.279	0.226
-132.356	493.323	-0.138	0.311
-131.341	274.969	0.155	-0.270
-130.326	-24.558	-0.114	-0.067
-129.312	58.677	0.277	0.266
-128.297	228.334	-0.184	-0.294
-127.283	7.726	0.218	0.160
-126.268	-94.715	0.319	0.085
-125.253	-18.424	0.061	0.037
-124.239	-200.000	0.012	-0.210
-123.224	-200.000	0.008	0.167
-122.210	27.380	0.220	0.181
-121.195	-200.000	0.022	0.198
