DTS Sentinel unit serial number:	SN413079Multiplexer serial number:	ORYXHardware model number:	OX4-SRSoftware version number:	ORYX F/W v4.00 Oryx Data Collector v3.7.2.0data status	okinstallation	princeton_trtdifferential loss correction	single-endedforward channel	channel 1reverse channel	N/Adate	2019/09/11time	18:00:11forward acquisition time	60.00reverse acquisition time	0.00gamma	496.2192k internal	0.2290k external	0.2290temperature offset calibration	0.9999default loss term (dB/km)	0.3790temperature slope calibration	1.0000multiplexer offset coefficient	1.0000multiplexer slope coefficient	1.0000fibre end	0.00T internal ref (°C)	44.00T ext. ref 1 (°C)	1.13T ext. ref 2 (°C)	39.06length (m)	temperature (°C)	Stokes	anti-Stokes-747.200	-54.127	-0.325	0.151
-746.185	631.814	0.104	0.271
-745.171	120.168	0.148	-0.188
-744.156	88.116	-0.027	0.031
-743.142	800.000	-0.032	0.121
-742.127	136.369	0.147	0.196
-741.112	153.289	-0.181	-0.254
-740.098	800.000	-0.036	0.150
-739.083	628.889	-0.042	0.110
-738.069	-128.313	-0.342	0.050
-737.054	128.594	-0.098	-0.127
-736.039	-200.000	-0.012	-0.077
-735.025	355.855	-0.145	0.295
-734.010	-89.749	-0.188	-0.056
-732.996	247.166	-0.135	-0.233
-731.981	686.235	-0.066	0.178
-730.966	800.000	0.056	0.163
-729.952	119.630	-0.166	-0.210
-728.937	-147.976	-0.141	0.012
-727.923	-117.639	0.549	0.101
-726.908	24.223	-0.192	-0.162
-725.894	63.424	-0.189	-0.194
-724.879	-12.191	-0.123	-0.082
-723.864	-200.000	0.037	-0.242
-722.850	-144.104	0.244	-0.023
-721.835	800.000	-0.043	0.124
-720.821	-200.000	0.038	-0.382
-719.806	169.552	-0.122	-0.179
-718.791	-62.258	0.089	0.038
-717.777	543.090	0.180	0.438
-716.762	-91.672	-0.260	0.076
-715.748	76.498	-0.421	-0.457
-714.733	121.987	-0.100	0.128
-713.718	119.538	-0.099	0.126
-712.704	-4.498	0.276	-0.195
-711.689	-23.862	-0.223	0.136
-710.675	-200.000	-0.007	0.146
-709.660	-200.000	-0.000	-0.060
-708.645	-200.000	-0.002	-0.267
-707.631	757.012	0.083	-0.229
-706.616	105.066	-0.110	0.133
-705.602	800.000	0.199	0.605
-704.587	-84.993	0.098	0.031
-703.572	-163.616	0.064	0.003
-702.558	217.317	0.143	-0.233
-701.543	-83.956	-0.358	0.116
-700.529	800.000	0.087	0.270
-699.514	-200.000	-0.052	0.317
-698.499	265.891	-0.142	0.253
-697.485	-200.000	0.023	0.219
-696.470	-50.791	-0.076	0.037
-695.456	-200.000	-0.030	-0.201
-694.441	-66.822	0.152	0.061
-693.426	800.000	0.066	0.217
-692.412	-120.343	-0.144	-0.025
-691.397	800.000	0.038	-0.156
-690.383	-103.394	-0.146	0.035
-689.368	-99.725	-0.197	-0.051
-688.354	531.690	-0.120	0.291
-687.339	191.448	0.065	-0.101
-686.324	73.399	-0.350	-0.374
-685.310	-68.243	0.181	-0.072
-684.295	225.221	-0.259	-0.428
-683.281	800.000	0.056	0.177
-682.266	206.714	-0.102	0.162
-681.251	21.286	0.050	-0.041
-680.237	-172.354	-0.051	-0.002
-679.222	-30.960	0.153	0.088
-678.208	-128.169	-0.171	-0.025
-677.193	-200.000	-0.026	-0.146
-676.178	88.797	-0.106	-0.120
-675.164	93.974	0.106	0.122
-674.149	-68.614	0.197	-0.078
-673.135	-45.273	0.138	-0.070
-672.120	55.069	-0.277	0.273
-671.105	141.611	0.084	0.114
-670.091	406.547	-0.035	0.075
-669.076	-200.000	-0.036	-0.335
-668.062	-27.145	-0.060	0.035
-667.047	680.785	-0.008	0.020
-666.032	112.343	0.082	0.101
-665.018	-42.163	0.172	-0.090
-664.003	33.867	-0.199	-0.177
-662.989	-200.000	0.007	0.139
-661.974	-45.448	0.138	-0.070
-660.959	346.265	-0.176	0.353
-659.945	-200.000	-0.002	0.167
-658.930	9.781	-0.086	0.067
-657.916	-155.360	-0.508	0.034
-656.901	-25.287	0.140	0.085
-655.886	-200.000	-0.047	0.358
-654.872	-27.316	-0.041	-0.025
-653.857	11.938	-0.465	-0.365
-652.843	-200.000	0.008	0.253
-651.828	595.085	-0.072	-0.182
-650.814	-200.000	-0.028	-0.218
-649.799	800.000	0.073	0.255
-648.784	293.185	0.100	-0.186
-647.770	800.000	-0.045	0.159
-646.755	143.548	0.173	-0.236
-645.741	800.000	-0.051	0.166
-644.726	-146.390	-0.123	0.011
-643.711	734.259	0.075	0.204
-642.697	3.145	-0.141	-0.105
-641.682	-39.097	-0.257	-0.138
-640.668	5.812	0.085	-0.064
-639.653	-200.000	0.036	-0.256
-638.638	-14.695	-0.153	0.100
-637.624	-89.241	-0.130	0.039
-636.609	56.017	-0.101	-0.100
-635.595	-72.339	-0.023	-0.009
-634.580	2.684	0.146	0.108
-633.565	0.848	0.101	0.073
-632.551	-94.840	-0.164	-0.045
-631.536	-170.927	-0.159	-0.006
-630.522	-77.882	0.084	-0.030
-629.507	-66.629	0.307	-0.124
-628.492	-200.000	0.018	0.167
-627.478	71.118	-0.328	-0.347
-626.463	-142.720	-0.082	-0.008
-625.449	571.230	-0.141	-0.350
-624.434	-84.573	-0.326	-0.105
-623.419	800.000	-0.049	-0.138
-622.405	-2.401	-0.119	0.085
-621.390	-200.000	0.030	-0.264
-620.376	-106.950	-0.164	0.037
-619.361	108.317	-0.161	0.196
-618.346	306.862	0.151	0.287
-617.332	-1.296	-0.103	-0.074
-616.317	110.005	0.165	0.202
-615.303	115.535	0.094	-0.117
-614.288	-4.013	-0.165	-0.117
-613.273	481.870	-0.076	-0.176
-612.259	361.627	0.049	-0.100
-611.244	-71.092	0.295	-0.113
-610.230	-125.655	0.213	0.033
-609.215	-94.328	0.123	-0.034
-608.201	192.404	0.187	-0.288
-607.186	96.737	-0.117	-0.137
-606.171	212.682	0.127	0.205
-605.157	54.563	0.090	-0.088
-604.142	128.637	-0.037	-0.049
-603.128	-141.248	-0.290	-0.030
-602.113	592.612	0.111	0.279
-601.098	-7.554	-0.029	-0.020
-600.084	191.647	-0.061	-0.093
-599.069	-18.755	0.186	-0.118
-598.055	-200.000	0.056	0.292
-597.040	123.900	-0.178	0.228
-596.025	22.496	0.144	-0.120
-595.011	-134.670	0.236	-0.029
-593.996	-128.875	-0.571	-0.082
-592.982	18.772	0.169	0.138
-591.967	210.724	-0.122	-0.195
-590.952	-151.810	0.097	0.007
-589.938	271.759	-0.116	-0.209
-588.923	49.157	0.246	0.235
-587.909	-200.000	-0.019	0.104
-586.894	29.408	0.201	0.174
-585.879	363.839	-0.081	0.166
-584.865	3.800	0.178	-0.133
-583.850	-45.087	-0.227	0.115
-582.836	318.588	-0.179	0.345
-581.821	49.411	0.134	0.129
-580.806	-100.577	-0.121	0.030
-579.792	284.416	-0.112	0.206
-578.777	571.025	0.106	0.262
-577.763	-126.183	0.321	0.049
-576.748	800.000	0.104	-0.379
-575.733	-200.000	0.021	-0.326
-574.719	-97.865	0.409	-0.107
-573.704	384.045	0.188	0.393
-572.690	48.011	0.186	0.177
-571.675	367.198	0.121	-0.249
-570.661	-56.319	-0.192	-0.087
-569.646	-194.169	-0.263	0.002
-568.631	-91.656	-0.089	0.026
-567.617	402.198	-0.085	-0.182
-566.602	-200.000	0.038	-0.237
-565.588	-200.000	-0.057	0.320
-564.573	109.308	-0.018	0.022
-563.558	-173.489	-0.476	-0.015
-562.544	-200.000	-0.003	-0.099
-561.529	199.718	0.080	-0.125
-560.515	202.108	-0.131	0.206
-559.500	340.417	0.126	-0.250
-558.485	74.684	-0.055	0.058
-557.471	68.566	-0.158	0.165
-556.456	267.553	-0.124	0.220
-555.442	-200.000	0.027	-0.163
-554.427	-36.610	0.185	-0.101
-553.412	53.315	-0.188	0.183
-552.398	-38.986	-0.420	-0.225
-551.383	-124.588	-0.279	0.044
-550.369	273.756	0.094	-0.169
-549.354	227.693	0.049	0.081
-548.339	91.762	-0.237	-0.271
-547.325	186.742	-0.070	-0.105
-546.310	-33.406	-0.149	-0.084
-545.296	-187.246	0.207	-0.003
-544.281	-150.918	-0.225	-0.017
-543.266	158.183	0.053	0.075
-542.252	192.284	0.094	-0.144
-541.237	800.000	0.085	0.287
-540.223	800.000	-0.103	0.307
-539.208	-16.474	-0.045	-0.029
-538.193	800.000	0.104	-0.337
-537.179	-75.407	0.185	0.067
-536.164	-200.000	0.012	-0.203
-535.150	575.348	-0.011	-0.026
-534.135	800.000	0.014	-0.057
-533.121	800.000	-0.052	-0.228
-532.106	473.147	0.098	0.224
-531.091	-200.000	-0.021	0.124
-530.077	737.769	-0.017	0.046
-529.062	14.649	0.033	0.026
-528.048	800.000	0.043	0.186
-527.033	7.687	-0.141	-0.107
-526.018	103.480	0.124	0.147
-525.004	-117.327	0.215	-0.040
-523.989	-79.501	0.165	-0.056
-522.975	-123.524	0.388	-0.063
-521.960	215.881	-0.042	-0.069
-520.945	395.473	0.064	0.135
-519.931	119.900	-0.063	-0.080
-518.916	58.590	-0.013	0.013
-517.902	-200.000	0.014	-0.197
-516.887	85.277	0.094	-0.105
-515.872	-200.000	0.015	-0.085
-514.858	137.800	-0.153	-0.203
-513.843	-125.763	0.235	-0.036
-512.829	800.000	-0.028	0.079
-511.814	-173.052	-0.056	0.002
-510.799	-92.969	0.183	0.052
-509.785	-2.034	-0.362	-0.258
-508.770	22.060	-0.134	-0.111
-507.756	-131.128	0.082	0.011
-506.741	243.689	0.074	0.125
-505.726	-200.000	0.008	-0.130
-504.712	151.981	-0.096	0.133
-503.697	300.924	-0.053	0.099
-502.683	-200.000	-0.018	0.222
-501.668	326.166	-0.146	0.283
-500.653	-200.000	-0.001	0.362
-499.639	-150.278	0.481	0.038
-498.624	148.083	-0.026	-0.035
-497.610	-200.000	-0.004	-0.183
-496.595	-200.000	0.006	-0.169
-495.581	77.291	-0.157	-0.169
-494.566	-200.000	0.037	0.218
-493.551	495.019	0.032	0.075
-492.537	-48.085	-0.207	0.102
-491.522	-98.735	0.337	-0.087
-490.508	-200.000	0.024	0.233
-489.493	43.241	-0.076	-0.070
-488.478	-200.000	0.006	0.193
-487.464	-120.748	0.083	-0.014
-486.449	-93.126	-0.183	0.052
-485.435	252.662	0.134	-0.231
-484.420	-164.852	0.267	0.012
-483.405	75.445	-0.082	0.088
-482.391	-23.884	0.305	0.185
-481.376	-31.022	-0.125	-0.071
-480.362	785.719	0.095	-0.265
-479.347	237.782	-0.056	0.094
-478.332	-52.337	0.120	0.057
-477.318	111.113	-0.138	0.168
-476.303	-200.000	-0.019	0.094
-475.289	-200.000	-0.015	0.130
-474.274	-200.000	-0.025	-0.307
-473.259	59.600	-0.118	0.118
-472.245	800.000	0.055	0.166
-471.230	383.971	0.033	0.070
-470.216	233.412	-0.157	-0.262
-469.201	-56.944	0.252	0.113
-468.186	-40.747	-0.046	0.024
-467.172	21.360	-0.228	-0.188
-466.157	-184.698	-0.157	-0.003
-465.143	-200.000	-0.015	0.118
-464.128	-40.810	0.276	-0.145
-463.113	-118.894	-0.412	-0.073
-462.099	392.470	0.060	0.126
-461.084	-131.664	-0.082	0.011
-460.070	126.042	0.204	-0.262
-459.055	6.769	-0.313	-0.236
-458.040	-103.782	-0.419	0.099
-457.026	54.043	0.122	0.119
-456.011	34.596	-0.234	0.207
-454.997	53.023	-0.168	-0.163
-453.982	-105.314	0.400	-0.092
-452.968	-200.000	-0.004	0.277
-451.953	625.886	0.171	0.437
-450.938	-200.000	0.021	0.212
-449.924	-37.198	-0.166	-0.090
-448.909	-109.079	-0.068	0.015
-447.895	553.808	-0.098	0.238
-446.880	315.054	-0.044	0.084
-445.865	152.508	-0.044	-0.060
-444.851	-68.992	0.126	-0.049
-443.836	-135.393	-0.050	0.006
-442.822	-50.488	0.265	0.127
-441.807	444.099	-0.101	0.225
-440.792	244.774	0.175	0.298
-439.778	178.299	0.195	-0.288
-438.763	85.985	-0.058	-0.064
-437.749	-200.000	0.011	-0.184
-436.734	-67.857	-0.156	-0.062
-435.719	-28.230	0.141	0.082
-434.705	-172.137	0.340	0.011
-433.690	-200.000	0.001	-0.210
-432.676	45.321	0.163	-0.152
-431.661	50.693	0.234	0.224
-430.646	800.000	-0.098	0.404
-429.632	-7.175	0.285	0.196
-428.617	420.462	0.067	-0.146
-427.603	3.357	-0.328	-0.242
-426.588	-3.530	-0.046	0.032
-425.573	354.963	0.085	0.171
-424.559	731.142	0.093	0.252
-423.544	204.317	-0.164	-0.258
-422.530	-144.227	-0.258	0.024
-421.515	-200.000	0.012	-0.125
-420.500	-64.828	0.073	-0.030
-419.486	705.683	0.149	-0.398
-418.471	298.403	0.086	0.161
-417.457	-200.000	-0.045	-0.225
-416.442	164.102	0.058	-0.082
-415.428	8.965	0.247	-0.188
-414.413	-163.802	-0.488	0.023
-413.398	-200.000	-0.024	-0.120
-412.384	544.726	0.110	-0.267
-411.369	-49.295	-0.158	0.076
-410.355	420.904	0.250	0.541
-409.340	800.000	0.032	0.115
-408.325	-200.000	-0.023	0.177
-407.311	-133.563	-0.298	0.038
-406.296	800.000	0.088	-0.283
-405.282	336.035	0.111	-0.218
-404.267	35.368	0.104	0.092
-403.252	98.616	-0.119	0.139
-402.238	69.063	0.188	-0.195
-401.223	20.606	-0.035	-0.029
-400.209	318.579	0.123	0.235
-399.194	102.522	0.338	0.400
-398.179	-200.000	-0.047	-0.259
-397.165	-58.125	0.309	-0.136
-396.150	-127.077	-0.226	0.034
-395.136	-200.000	0.066	-0.437
-394.121	22.135	-0.088	0.073
-393.106	51.267	0.337	-0.323
-392.092	580.922	-0.082	-0.204
-391.077	-200.000	0.035	0.264
-390.063	-169.758	-0.211	0.008
-389.048	-66.762	0.264	0.105
-388.033	86.118	-0.094	-0.105
-387.019	-115.831	0.230	0.043
-386.004	-200.000	-0.065	-0.298
-384.990	224.517	-0.070	-0.114
-383.975	-89.798	-0.211	-0.062
-382.960	56.639	-0.225	-0.221
-381.946	57.826	0.307	0.304
-380.931	-11.923	-0.286	0.189
-379.917	231.720	0.076	0.125
-378.902	-200.000	-0.007	0.256
-377.888	800.000	0.050	0.185
-376.873	-200.000	0.007	-0.105
-375.858	-93.674	0.142	0.040
-374.844	10.576	0.500	0.385
-373.829	-122.038	0.142	0.024
-372.815	-200.000	0.017	-0.096
-371.800	-48.476	-0.071	0.035
-370.785	100.245	0.347	0.406
-369.771	14.522	0.241	0.190
-368.756	-160.396	0.128	0.007
-367.742	-200.000	0.025	-0.203
-366.727	-31.978	-0.083	-0.047
-365.712	-37.842	-0.094	0.050
-364.698	250.235	-0.175	-0.300
-363.683	-74.893	-0.128	-0.046
-362.669	132.947	0.248	-0.323
-361.654	104.691	0.013	0.016
-360.639	800.000	0.090	0.262
-359.625	550.248	-0.113	0.274
-358.610	181.184	-0.132	-0.197
-357.596	9.743	-0.213	0.163
-356.581	800.000	-0.096	0.414
-355.566	-5.681	-0.118	0.082
-354.552	-13.853	0.139	0.091
-353.537	-129.266	0.174	-0.024
-352.523	-110.045	-0.273	0.058
-351.508	658.411	0.071	0.185
-350.493	-200.000	0.005	-0.238
-349.479	58.794	-0.182	-0.181
-348.464	1.138	-0.327	0.237
-347.450	800.000	0.054	0.170
-346.435	117.870	0.178	0.221
-345.420	249.796	0.102	0.175
-344.406	34.904	0.115	-0.101
-343.391	-30.162	0.337	-0.193
-342.377	-86.846	0.326	0.100
-341.362	530.972	0.089	0.212
-340.348	-165.906	0.164	0.007
-339.333	-31.185	-0.053	0.030
-338.318	-31.451	-0.123	-0.070
-337.304	26.507	0.248	-0.209
-336.289	149.645	-0.168	0.229
-335.275	-171.718	-0.142	0.005
-334.260	-30.786	-0.308	-0.176
-333.245	-200.000	-0.020	0.229
-332.231	-200.000	0.043	0.354
-331.216	-170.861	-0.182	-0.006
-330.202	114.671	0.184	0.226
-329.187	292.916	-0.177	-0.325
-328.172	-200.000	0.041	0.218
-327.158	-200.000	-0.045	0.226
-326.143	118.740	0.274	-0.341
-325.129	152.480	0.246	-0.339
-324.114	-136.611	-0.331	-0.039
-323.099	159.859	0.160	0.225
-322.085	-104.759	-0.149	0.035
-321.070	475.564	-0.062	-0.140
-320.056	-116.466	-0.253	0.047
-319.041	117.228	-0.092	-0.114
-318.026	800.000	-0.080	0.279
-317.012	-200.000	-0.005	-0.033
-315.997	-28.365	-0.109	0.063
-314.983	62.720	-0.196	0.197
-313.968	-48.971	-0.126	-0.061
-312.953	113.325	0.110	-0.135
-311.939	164.054	0.015	-0.021
-310.924	37.115	0.240	-0.214
-309.910	198.724	0.182	-0.280
-308.895	143.179	0.103	0.139
-307.880	-200.000	0.090	-0.406
-306.866	-146.830	0.123	0.011
-305.851	-73.992	0.147	-0.054
-304.837	56.895	0.163	-0.160
-303.822	116.360	-0.108	0.134
-302.807	800.000	-0.065	0.206
-301.793	-126.789	-0.275	0.041
-300.778	-200.000	-0.052	-0.295
-299.764	-200.000	0.022	0.445
-298.749	-96.636	-0.309	0.082
-297.735	-200.000	-0.027	0.466
-296.720	-200.000	-0.051	-0.410
-295.705	-94.340	-0.021	-0.006
-294.691	21.060	0.210	-0.171
-293.676	45.338	0.234	-0.218
-292.662	-93.699	-0.158	-0.044
-291.647	800.000	0.065	-0.270
-290.632	800.000	-0.084	0.335
-289.618	-57.639	0.238	-0.105
-288.603	537.954	0.069	-0.165
-287.589	-61.373	-0.258	-0.109
-286.574	800.000	0.062	0.183
-285.559	-85.745	-0.226	0.071
-284.545	-60.353	0.014	-0.006
-283.530	800.000	0.057	0.179
-282.516	513.164	0.075	-0.177
-281.501	-200.000	-0.017	0.099
-280.486	800.000	-0.050	-0.139
-279.472	-172.012	0.186	0.006
-278.457	165.520	-0.024	0.034
-277.443	-96.940	-0.472	-0.124
-276.428	128.501	0.222	0.284
-275.413	800.000	-0.103	-0.338
-274.399	618.492	0.035	-0.088
-273.384	558.779	0.103	0.250
-272.370	-109.817	-0.325	0.069
-271.355	-94.266	0.314	-0.086
-270.340	-200.000	0.033	-0.221
-269.326	-72.307	-0.111	-0.041
-268.311	143.044	0.208	0.278
-267.297	384.658	-0.105	-0.218
-266.282	390.504	-0.098	0.205
-265.267	-26.120	0.191	-0.113
-264.253	-200.000	0.001	0.082
-263.238	290.694	-0.157	0.288
-262.224	-200.000	-0.077	-0.383
-261.209	-55.146	-0.293	-0.133
-260.195	122.724	0.077	-0.097
-259.180	87.525	0.342	-0.380
-258.165	-87.965	0.153	-0.046
-257.151	93.210	0.114	0.129
-256.136	-200.000	-0.009	0.315
-255.122	234.350	0.032	0.052
-254.107	107.970	-0.238	-0.285
-253.092	-200.000	0.066	-0.427
-252.078	37.336	0.290	0.258
-251.063	-149.679	-0.418	0.033
-250.049	-62.543	-0.094	0.039
-249.034	-48.124	0.068	-0.033
-248.019	-200.000	-0.042	-0.199
-247.005	-200.000	0.006	0.058
-245.990	-107.391	0.256	0.057
-244.976	-19.487	-0.333	-0.207
-243.961	-200.000	0.025	0.183
-242.946	-125.925	0.381	-0.058
-241.932	621.191	-0.073	-0.185
-240.917	800.000	0.134	-0.432
-239.903	49.779	-0.073	0.069
-238.888	78.147	0.043	0.046
-237.873	-119.720	-0.309	-0.054
-236.859	40.878	0.177	-0.160
-235.844	30.835	0.062	0.053
-234.830	-200.000	-0.055	0.273
-233.815	-92.508	-0.171	0.048
-232.800	-200.000	-0.022	-0.217
-231.786	-200.000	0.024	-0.393
-230.771	291.285	-0.144	-0.262
-229.757	-200.000	0.074	0.324
-228.742	514.544	-0.036	0.084
-227.727	696.893	-0.158	-0.416
-226.713	-32.466	-0.195	-0.109
-225.698	-200.000	-0.050	0.325
-224.684	-200.000	-0.013	0.124
-223.669	-29.975	-0.190	0.109
-222.655	-98.931	-0.207	0.053
-221.640	-57.598	0.424	0.187
-220.625	-50.365	0.016	0.007
-219.611	503.552	-0.124	-0.288
-218.596	529.699	-0.098	0.233
-217.582	-132.354	-0.256	-0.033
-216.567	-27.335	0.182	-0.107
-215.552	-26.763	-0.018	0.011
-214.538	-133.226	0.326	-0.041
-213.523	-3.148	-0.412	0.288
-212.509	63.797	-0.324	0.326
-211.494	-200.000	-0.035	0.159
-210.479	-144.814	-0.202	-0.019
-209.465	-126.511	0.191	0.028
-208.450	-200.000	0.000	0.001
-207.436	167.178	-0.106	-0.151
-206.421	278.632	-0.084	-0.150
-205.406	449.155	-0.069	-0.153
-204.392	-31.888	-0.377	0.212
-203.377	449.271	0.105	-0.232
-202.363	800.000	0.034	0.143
-201.348	3.398	-0.118	-0.086
-200.333	758.405	0.159	-0.433
-199.319	-200.000	0.054	0.252
-198.304	215.702	-0.175	0.279
-197.290	-200.000	0.022	0.216
-196.275	-140.320	0.510	-0.053
-195.260	800.000	0.035	-0.119
-194.246	-56.959	0.224	-0.099
-193.231	204.480	0.021	-0.033
-192.217	800.000	-0.122	-0.466
-191.202	-69.547	-0.108	0.041
-190.187	-24.168	0.067	0.040
-189.173	-44.516	-0.140	0.070
-188.158	800.000	-0.089	0.279
-187.144	13.750	0.321	0.250
-186.129	-96.782	0.312	0.082
-185.114	-200.000	0.014	-0.124
-184.100	119.256	-0.191	-0.236
-183.085	-79.336	0.293	-0.099
-182.071	-16.709	-0.154	0.097
-181.056	290.547	-0.162	0.294
-180.042	-108.771	-0.086	-0.018
-179.027	168.174	0.035	-0.050
-178.012	800.000	-0.030	0.092
-176.998	3.164	-0.041	-0.030
-175.983	800.000	0.030	0.085
-174.969	-71.167	-0.525	-0.198
-173.954	55.053	0.239	-0.232
-172.939	465.657	-0.077	0.173
-171.925	74.412	-0.287	-0.302
-170.910	800.000	0.126	0.397
-169.896	-116.008	-0.100	-0.019
-168.881	-11.718	0.339	-0.223
-167.866	-121.557	-0.269	-0.045
-166.852	-126.009	0.110	-0.017
-165.837	-155.754	-0.242	-0.015
-164.823	-16.692	0.296	-0.188
-163.808	-94.111	0.198	0.054
-162.793	800.000	0.031	-0.110
-161.779	-29.873	0.128	0.073
-160.764	-63.463	0.216	0.089
-159.750	20.112	-0.215	-0.173
-158.735	174.910	0.104	0.151
-157.720	-3.582	0.060	-0.042
-156.706	800.000	-0.051	-0.166
-155.691	-67.077	0.101	-0.040
-154.677	-54.816	-0.215	0.097
-153.662	-33.493	0.167	0.092
-152.647	-130.505	-0.082	-0.011
-151.633	796.028	-0.093	0.257
-150.618	-182.190	-0.497	0.009
-149.604	20.659	0.129	0.105
-148.589	-55.912	0.187	0.084
-147.574	-147.455	-0.424	0.036
-146.560	172.723	-0.192	0.276
-145.545	40.902	0.268	-0.242
-144.531	280.098	-0.104	-0.185
-143.516	118.414	0.104	0.128
-142.502	-200.000	-0.012	0.315
-141.487	-65.256	-0.307	0.124
-140.472	-99.297	-0.412	0.104
-139.458	-23.769	0.192	0.115
-138.443	693.640	-0.166	-0.436
-137.429	-75.726	-0.193	-0.069
-136.414	-8.302	0.150	-0.101
-135.399	-65.221	0.165	0.066
-134.385	194.773	-0.078	-0.119
-133.370	-167.332	-0.200	-0.008
-132.356	-200.000	0.086	0.413
-131.341	29.288	-0.074	-0.063
-130.326	319.033	0.195	-0.370
-129.312	-178.381	-0.052	-0.001
-128.297	311.796	0.119	0.223
-127.283	-15.972	0.123	-0.078
-126.268	-136.441	-0.290	0.034
-125.253	-200.000	-0.019	0.159
-124.239	288.547	0.175	0.317
-123.224	-146.193	0.138	0.012
-122.210	158.573	0.099	-0.138
-121.195	-26.157	0.119	0.070
