DTS Sentinel unit serial number:	SN413079Multiplexer serial number:	ORYXHardware model number:	OX4-SRSoftware version number:	ORYX F/W v4.00 Oryx Data Collector v3.7.2.0data status	okinstallation	princeton_trtdifferential loss correction	single-endedforward channel	channel 1reverse channel	N/Adate	2019/09/12time	20:01:34forward acquisition time	15.00reverse acquisition time	0.00gamma	496.2192k internal	0.2323k external	0.2323temperature offset calibration	1.0123default loss term (dB/km)	0.3790temperature slope calibration	1.0000multiplexer offset coefficient	1.0000multiplexer slope coefficient	1.0000fibre end	0.00T internal ref (°C)	31.75T ext. ref 1 (°C)	3.36T ext. ref 2 (°C)	26.26length (m)	temperature (°C)	Stokes	anti-Stokes-747.200	199.533	0.213	0.330
-746.185	-200.000	-0.093	0.489
-745.171	-69.343	-0.636	-0.246
-744.156	-121.746	1.019	-0.170
-743.142	-58.729	-0.260	-0.114
-742.127	31.102	1.255	-1.087
-741.112	-53.068	0.291	-0.135
-740.098	-122.649	-0.929	-0.152
-739.083	261.529	0.570	-0.997
-738.069	82.070	-0.180	0.197
-737.054	2.867	-0.284	-0.208
-736.039	88.690	-0.385	-0.432
-735.025	234.089	0.194	-0.322
-734.010	-86.743	0.298	0.092
-732.996	-200.000	-0.042	-0.629
-731.981	164.640	0.747	1.063
-730.966	800.000	-0.060	-0.222
-729.952	49.871	-0.510	-0.485
-728.937	-80.630	-0.364	0.122
-727.923	-122.207	-0.433	0.071
-726.908	-130.511	-1.442	-0.197
-725.894	167.015	0.269	0.385
-724.879	464.661	-0.297	0.669
-723.864	-170.279	-0.511	-0.018
-722.850	-200.000	0.164	0.920
-721.835	-81.899	-0.152	0.050
-720.821	-49.274	0.331	0.159
-719.806	-150.099	0.242	-0.019
-718.791	5.953	-0.345	0.258
-717.777	-200.000	0.033	-0.385
-716.762	-48.453	0.789	0.383
-715.748	-195.769	-0.468	-0.003
-714.733	86.091	0.356	-0.396
-713.718	311.882	0.325	0.614
-712.704	-130.069	0.376	-0.052
-711.689	248.894	0.173	-0.296
-710.675	97.387	-0.413	-0.479
-709.660	696.688	-0.064	-0.170
-708.645	-13.668	0.533	0.348
-707.631	90.560	-0.306	0.346
-706.616	-4.110	0.231	-0.161
-705.602	59.989	0.984	-0.980
-704.587	-80.729	0.898	0.301
-703.572	-117.052	0.197	0.036
-702.558	-63.934	-0.411	-0.170
-701.543	276.811	-0.354	-0.634
-700.529	-59.904	0.463	-0.200
-699.514	-200.000	0.177	-0.834
-698.499	-39.076	-0.607	-0.322
-697.485	-132.039	1.192	-0.156
-696.470	159.987	-0.436	0.613
-695.456	87.817	-0.518	0.579
-694.441	-42.054	-0.479	0.247
-693.426	123.090	0.386	-0.487
-692.412	-100.083	-0.372	0.093
-691.397	494.185	0.219	0.506
-690.383	241.150	0.223	0.375
-689.368	-200.000	0.047	0.680
-688.354	-97.237	0.318	-0.084
-687.339	-141.282	0.518	0.053
-686.324	-200.000	0.029	0.437
-685.310	-149.027	0.777	0.063
-684.295	800.000	0.075	0.259
-683.281	52.526	0.444	-0.427
-682.266	-200.000	-0.044	-0.351
-681.251	-37.109	0.335	0.181
-680.237	-99.785	-0.244	0.061
-679.222	109.825	0.578	-0.698
-678.208	16.490	0.701	0.557
-677.193	790.229	-0.287	-0.793
-676.178	18.837	-0.619	-0.499
-675.164	196.316	0.172	0.264
-674.149	-157.953	-0.486	-0.029
-673.135	-56.111	-0.492	-0.221
-672.120	-45.923	0.667	-0.331
-671.105	-16.028	0.162	0.104
-670.091	800.000	0.177	-0.706
-669.076	75.281	-0.280	-0.297
-668.062	291.798	0.212	0.389
-667.047	317.666	-0.130	-0.248
-666.032	-164.015	0.628	-0.029
-665.018	398.767	0.126	-0.266
-664.003	-95.175	0.578	0.157
-662.989	-109.480	0.456	-0.097
-661.974	140.587	-0.355	-0.472
-660.959	800.000	-0.171	0.497
-659.945	-200.000	0.003	0.040
-658.930	116.035	0.340	0.419
-657.916	753.040	0.233	0.634
-656.901	-98.962	0.511	0.130
-655.886	800.000	-0.092	0.372
-654.872	-138.317	0.365	0.041
-653.857	0.227	0.326	-0.234
-652.843	87.452	-0.378	-0.421
-651.828	-3.976	0.084	0.058
-650.814	57.465	-0.547	0.538
-649.799	-119.572	0.193	-0.034
-648.784	88.168	0.437	0.488
-647.770	-200.000	0.026	-0.607
-646.755	68.850	0.474	0.489
-645.741	170.775	-0.452	0.652
-644.726	151.773	0.218	-0.298
-643.711	-200.000	0.061	0.398
-642.697	283.985	0.126	-0.228
-641.682	50.323	0.437	-0.415
-640.668	75.547	-0.298	0.316
-639.653	-72.785	-0.420	0.156
-638.638	48.724	-0.318	-0.300
-637.624	84.075	0.528	0.580
-636.609	181.054	0.210	0.311
-635.595	-64.459	-0.109	-0.044
-634.580	-148.678	-0.620	-0.051
-633.565	297.571	0.438	-0.810
-632.551	-16.102	-0.913	-0.583
-631.536	-81.635	0.908	-0.300
-630.522	-70.863	-0.075	-0.028
-629.507	-200.000	-0.059	0.569
-628.492	-120.120	-0.180	0.031
-627.478	61.629	0.199	0.199
-626.463	226.741	0.681	-1.112
-625.449	150.573	-0.266	-0.364
-624.434	172.853	0.109	-0.157
-623.419	-89.992	-0.263	-0.077
-622.405	76.159	-0.606	0.645
-621.390	-61.558	-0.561	-0.237
-620.376	-200.000	0.003	0.623
-619.361	602.810	0.540	-1.349
-618.346	-200.000	-0.090	-0.561
-617.332	48.272	0.151	-0.142
-616.317	-86.615	-0.401	-0.124
-615.303	356.534	-0.245	-0.490
-614.288	115.639	0.433	0.531
-613.273	-200.000	0.126	-0.639
-612.259	93.958	-0.614	0.699
-611.244	-69.557	0.100	-0.039
-610.230	-15.054	-0.676	-0.435
-609.215	-127.220	-0.750	-0.110
-608.201	86.474	-0.284	-0.315
-607.186	-200.000	-0.015	-0.086
-606.171	-1.903	-0.440	0.311
-605.157	-19.669	-0.318	0.198
-604.142	800.000	-0.285	-0.875
-603.128	-77.583	-0.951	0.331
-602.113	183.598	0.295	0.438
-601.098	800.000	-0.099	-0.376
-600.084	-200.000	0.116	0.802
-599.069	93.227	-0.387	0.440
-598.055	68.604	0.139	-0.143
-597.040	14.149	-0.377	-0.295
-596.025	57.962	-0.544	0.535
-595.011	-178.255	-0.901	-0.021
-593.996	-100.868	0.494	0.122
-592.982	153.989	0.924	-1.272
-591.967	-10.020	-0.300	-0.200
-590.952	-200.000	-0.075	1.111
-589.938	187.719	-0.374	0.560
-588.923	53.233	0.174	-0.167
-587.909	-50.480	-0.921	0.436
-586.894	-200.000	-0.162	0.841
-585.879	182.538	-0.464	-0.687
-584.865	-134.852	0.473	-0.058
-583.850	35.959	-0.095	-0.084
-582.836	-72.452	-0.398	-0.148
-581.821	800.000	0.106	0.389
-580.806	-102.332	0.357	0.086
-579.792	394.551	0.239	-0.499
-578.777	-100.633	-0.133	-0.033
-577.763	87.486	0.653	0.725
-576.748	-200.000	0.078	-0.358
-575.733	554.135	-0.476	-1.149
-574.719	-90.435	-0.418	-0.122
-573.704	747.569	-0.306	-0.826
-572.690	326.535	0.202	-0.389
-571.675	478.176	0.282	-0.639
-570.661	58.986	-0.389	0.384
-569.646	-135.241	0.268	-0.032
-568.631	14.040	-0.802	-0.626
-567.617	-200.000	0.029	-0.208
-566.602	-162.467	-0.661	-0.033
-565.588	-44.649	0.119	-0.060
-564.573	79.454	0.317	0.341
-563.558	800.000	-0.349	1.137
-562.544	-136.323	0.639	-0.075
-561.529	-200.000	0.098	0.583
-560.515	-116.767	-0.610	-0.112
-559.500	65.009	-0.317	0.321
-558.485	800.000	0.058	0.169
-557.471	10.453	0.335	-0.256
-556.456	-151.974	-0.110	-0.008
-555.442	-25.004	0.647	0.385
-554.427	-116.841	0.564	0.104
-553.412	32.960	0.384	-0.333
-552.398	-124.506	-0.445	0.069
-551.383	800.000	0.041	0.167
-550.369	-159.606	-0.390	0.022
-549.354	-145.762	-0.542	-0.048
-548.339	-45.054	0.597	0.297
-547.325	-127.061	-0.455	-0.067
-546.310	48.926	-0.537	0.505
-545.296	-200.000	0.098	-0.745
-544.281	-178.182	-0.377	-0.009
-543.266	189.413	0.078	-0.117
-542.252	-53.854	0.948	0.433
-541.237	268.596	0.092	0.161
-540.223	-127.403	0.469	0.068
-539.208	-109.408	0.640	0.136
-538.193	-38.589	0.686	-0.363
-537.179	6.761	-0.225	-0.168
-536.164	-86.220	0.776	0.240
-535.150	18.782	-0.108	-0.086
-534.135	-107.095	-1.198	-0.265
-533.121	-125.991	0.546	0.082
-532.106	-118.255	-0.208	0.037
-531.091	74.466	0.275	-0.289
-530.077	114.477	0.231	0.282
-529.062	-45.955	-1.308	0.646
-528.048	-150.381	0.024	0.002
-527.033	-75.281	0.593	-0.212
-526.018	-96.381	-0.342	0.091
-525.004	-200.000	0.084	0.386
-523.989	-132.231	0.436	-0.057
-522.975	-152.065	0.217	0.016
-521.960	86.828	0.606	0.670
-520.945	-81.799	-0.380	-0.124
-519.931	-105.203	-0.466	-0.107
-518.916	68.869	0.800	-0.822
-517.902	-24.251	0.029	-0.017
-516.887	-65.986	0.294	0.118
-515.872	-143.935	0.301	0.028
-514.858	-76.505	0.197	0.069
-513.843	-88.875	0.408	-0.121
-512.829	-200.000	-0.044	-0.814
-511.814	-17.443	0.533	-0.336
-510.799	-75.722	0.332	0.118
-509.785	-195.726	0.309	-0.002
-508.770	-57.867	0.785	-0.343
-507.756	-114.250	0.270	0.052
-506.741	-200.000	0.016	-0.448
-505.726	7.357	0.495	0.370
-504.712	-2.434	-0.178	0.125
-503.697	-17.369	-0.365	-0.230
-502.683	-37.394	0.167	0.089
-501.668	67.095	0.307	0.313
-500.653	55.291	-0.466	-0.451
-499.639	800.000	0.198	-0.860
-498.624	152.357	0.297	-0.405
-497.610	-90.410	-0.400	0.116
-496.595	800.000	0.183	0.547
-495.581	-23.692	0.693	-0.415
-494.566	800.000	-0.052	-0.216
-493.551	-200.000	0.044	0.227
-492.537	-62.278	0.437	0.182
-491.522	107.801	0.159	0.189
-490.508	-36.985	0.328	0.176
-489.493	48.829	-0.555	0.520
-488.478	-144.433	0.320	0.030
-487.464	-164.033	0.369	-0.017
-486.449	245.475	0.238	0.400
-485.435	-200.000	-0.102	0.718
-484.420	-103.500	-0.497	-0.117
-483.405	-65.623	-0.327	0.131
-482.391	90.336	-0.429	-0.479
-481.376	-95.548	-0.290	-0.078
-480.362	-200.000	0.116	-0.710
-479.347	-43.808	0.079	0.040
-478.332	-30.598	-0.198	0.112
-477.318	-200.000	0.147	0.812
-476.303	-200.000	0.074	-0.625
-475.289	-91.306	-0.634	0.181
-474.274	274.611	0.261	-0.461
-473.259	-54.115	0.373	0.169
-472.245	-136.630	-0.661	-0.076
-471.230	-23.335	-0.476	0.286
-470.216	54.095	0.479	-0.460
-469.201	16.891	-0.476	-0.377
-468.186	-200.000	-0.092	-0.649
-467.172	490.421	-0.291	0.664
-466.157	118.820	0.621	0.766
-465.143	-52.133	-0.191	-0.088
-464.128	-171.156	0.486	-0.016
-463.113	50.788	0.550	0.520
-462.099	490.275	-0.009	0.020
-461.084	-66.789	-0.771	-0.305
-460.070	179.174	0.254	-0.372
-459.055	26.566	-0.677	0.565
-458.040	45.175	0.667	0.614
-457.026	106.137	0.306	-0.361
-456.011	143.564	-0.276	0.368
-454.997	-84.810	0.847	-0.266
-453.982	-18.768	0.872	-0.543
-452.968	229.084	-0.415	-0.675
-451.953	128.688	0.452	0.575
-450.938	-72.999	-0.272	-0.100
-449.924	-127.297	0.331	0.048
-448.909	-92.942	-0.482	-0.134
-447.895	-129.131	-0.837	0.117
-446.880	-2.001	0.301	0.211
-445.865	589.879	-0.179	-0.440
-444.851	125.267	0.257	-0.324
-443.836	-200.000	0.010	0.076
-442.822	30.686	-0.823	-0.703
-441.807	281.389	-0.276	0.493
-440.792	8.323	-0.454	0.341
-439.778	750.376	-0.041	-0.109
-438.763	28.155	0.370	-0.311
-437.749	272.420	-0.255	0.450
-436.734	-100.134	-0.771	-0.192
-435.719	100.205	-0.679	-0.786
-434.705	-57.415	0.497	-0.218
-433.690	-55.931	-0.428	0.190
-432.676	-24.684	0.525	-0.311
-431.661	-200.000	0.123	-0.620
-430.646	-64.113	0.506	-0.206
-429.632	-141.387	0.712	0.072
-428.617	-200.000	-0.027	-0.247
-427.603	-10.617	0.175	0.116
-426.588	-200.000	0.079	-0.455
-425.573	-200.000	0.106	-0.533
-424.559	29.745	0.154	0.131
-423.544	-65.304	-0.444	-0.178
-422.530	-200.000	-0.025	0.194
-421.515	764.150	-0.243	0.657
-420.500	800.000	0.118	0.477
-419.486	-15.174	-0.415	-0.265
-418.471	-90.998	0.602	0.173
-417.457	519.518	0.130	0.304
-416.442	-54.737	0.941	0.424
-415.428	-21.925	0.051	-0.031
-414.413	-32.849	-0.593	-0.329
-413.398	-97.321	-1.322	-0.343
-412.384	-182.096	-0.575	-0.011
-411.369	-200.000	-0.126	0.694
-410.355	14.888	-0.521	-0.407
-409.340	-30.867	-0.580	0.327
-408.325	291.658	-0.396	-0.717
-407.311	-200.000	0.108	-0.760
-406.296	-200.000	0.021	0.293
-405.282	-200.000	0.022	-0.584
-404.267	-29.960	0.707	-0.401
-403.252	-200.000	0.040	-0.269
-402.238	178.339	0.091	-0.133
-401.223	-200.000	0.160	-1.866
-400.209	-21.677	-0.875	0.531
-399.194	-96.785	0.163	0.043
-398.179	128.207	0.498	-0.632
-397.165	1.948	0.386	-0.278
-396.150	800.000	-0.171	0.567
-395.136	800.000	0.125	0.357
-394.121	-24.596	0.387	0.229
-393.106	109.829	0.269	-0.321
-392.092	-104.317	-0.364	-0.084
-391.077	81.658	0.188	-0.202
-390.063	31.671	0.466	0.399
-389.048	265.908	0.239	0.416
-388.033	-151.655	0.829	0.061
-387.019	760.762	-0.077	-0.208
-386.004	-118.312	0.917	0.162
-384.990	331.801	-0.268	0.515
-383.975	-34.353	-0.392	-0.214
-382.960	-92.121	-0.286	-0.081
-381.946	-200.000	0.135	-0.661
-380.931	-200.000	-0.067	-0.382
-379.917	-200.000	-0.135	0.657
-378.902	-12.362	0.349	-0.227
-377.888	31.046	-0.163	-0.139
-376.873	638.929	0.097	0.246
-375.858	-79.874	0.112	-0.038
-374.844	-54.579	-0.206	-0.093
-373.829	-66.974	-0.369	0.145
-372.815	800.000	0.332	0.917
-371.800	231.946	-0.384	0.627
-370.785	-133.228	0.511	0.064
-369.771	800.000	-0.134	0.568
-368.756	-9.051	-0.310	-0.207
-367.742	800.000	0.150	-0.561
-366.727	-159.433	-0.730	0.040
-365.712	-200.000	0.004	0.575
-364.698	-200.000	-0.098	1.431
-363.683	-200.000	-0.186	0.916
-362.669	403.117	-0.149	-0.312
-361.654	76.996	-0.321	-0.340
-360.639	140.175	0.265	0.348
-359.625	95.553	-0.332	0.377
-358.610	158.943	0.274	-0.378
-357.596	800.000	-0.268	-0.878
-356.581	64.112	0.210	0.210
-355.566	161.701	-0.273	0.380
-354.552	-131.431	-0.299	-0.039
-353.537	-200.000	0.018	0.301
-352.523	-85.981	-0.693	-0.213
-351.508	-52.478	0.769	0.354
-350.493	-41.624	-0.302	0.154
-349.479	-168.396	-1.065	-0.041
-348.464	800.000	-0.119	0.350
-347.450	-66.767	0.296	-0.117
-346.435	93.297	-0.333	0.375
-345.420	800.000	0.288	-0.874
-344.406	290.037	0.186	-0.336
-343.391	800.000	-0.109	0.331
-342.377	-106.237	-0.503	0.112
-341.362	800.000	-0.257	-1.071
-340.348	-200.000	-0.094	-0.638
-339.333	241.231	-0.235	-0.390
-338.318	-200.000	-0.176	-0.776
-337.304	98.577	-0.552	0.632
-336.289	-130.562	-0.984	-0.132
-335.275	636.837	0.088	0.223
-334.260	-200.000	0.021	0.627
-333.245	-20.798	1.080	0.658
-332.231	394.458	-0.210	-0.436
-331.216	101.745	0.347	-0.402
-330.202	-200.000	0.538	0.002
-329.187	-45.835	0.409	-0.201
-328.172	-75.242	-0.832	0.295
-327.158	149.735	-0.422	-0.568
-326.143	137.270	0.509	0.661
-325.129	-26.425	-0.357	-0.208
-324.114	29.526	0.260	0.219
-323.099	-200.000	-0.060	-0.603
-322.085	94.125	-0.198	0.224
-321.070	363.074	0.101	-0.201
-320.056	-62.379	1.365	0.564
-319.041	-168.013	-0.387	-0.015
-318.026	-200.000	0.109	0.492
-317.012	140.351	-0.278	-0.365
-315.997	509.077	-0.120	-0.277
-314.983	16.140	0.573	0.448
-313.968	-158.685	0.340	-0.019
-312.953	-100.730	-0.708	-0.173
-311.939	54.345	-0.207	-0.198
-310.924	-200.000	0.152	0.985
-309.910	-34.238	-0.367	0.200
-308.895	34.546	0.542	0.470
-307.880	134.959	0.441	0.568
-306.866	-200.000	-0.089	-0.539
-305.851	167.424	-0.184	0.260
-304.837	-127.145	0.714	-0.104
-303.822	299.895	-0.085	-0.155
-302.807	-200.000	-0.101	0.610
-301.793	-135.649	-0.419	-0.049
-300.778	800.000	0.201	-0.658
-299.764	53.944	0.276	0.263
-298.749	83.347	0.622	0.672
-297.735	800.000	-0.157	-0.545
-296.720	-105.081	-0.197	0.045
-295.705	-100.223	-0.642	-0.158
-294.691	800.000	-0.209	-0.660
-293.676	-161.593	0.704	-0.036
-292.662	-36.598	-0.365	0.195
-291.647	800.000	-0.088	-0.378
-290.632	-83.591	0.216	0.069
-289.618	-200.000	0.057	0.560
-288.603	547.941	-0.120	-0.286
-287.589	353.496	-0.379	0.747
-286.574	133.519	0.382	0.490
-285.559	-64.435	0.430	0.173
-284.545	-182.069	0.529	-0.010
-283.530	678.116	0.130	0.336
-282.516	319.752	-0.133	0.250
-281.501	-200.000	-0.017	0.219
-280.486	-109.118	0.459	-0.097
-279.472	-31.066	0.478	-0.267
-278.457	-200.000	0.075	0.430
-277.443	-56.954	0.299	-0.131
-276.428	-137.823	0.342	-0.038
-275.413	-200.000	-0.061	-0.292
-274.399	748.292	0.249	-0.667
-273.384	-200.000	-0.102	0.598
-272.370	-200.000	-0.037	0.303
-271.355	-72.893	-0.393	0.143
-270.340	-200.000	0.101	0.644
-269.326	690.535	0.235	0.610
-268.311	111.174	-0.198	0.237
-267.297	-200.000	0.005	-0.261
-266.282	165.438	0.427	0.597
-265.267	-200.000	-0.012	-0.222
-264.253	-108.498	0.600	-0.128
-263.238	-71.291	1.015	0.377
-262.224	800.000	-0.199	-0.547
-261.209	-52.226	0.376	0.173
-260.195	-140.105	-0.911	0.095
-259.180	-200.000	0.139	-0.661
-258.165	-200.000	0.021	-0.269
-257.151	113.945	0.062	-0.075
-256.136	176.790	0.244	-0.352
-255.122	-168.578	0.296	-0.011
-254.107	13.998	0.465	-0.359
-253.092	-200.000	0.045	-0.922
-252.078	800.000	-0.047	-0.189
-251.063	800.000	0.190	0.739
-250.049	-200.000	-0.009	-0.346
-249.034	270.636	-0.251	-0.437
-248.019	1.380	-0.578	-0.412
-247.005	800.000	0.153	0.530
-245.990	198.212	0.365	-0.553
-244.976	800.000	-0.361	1.027
-243.961	-66.352	0.357	0.141
-242.946	-200.000	0.041	-0.220
-241.932	-141.691	0.556	0.055
-240.917	252.531	0.127	0.215
-239.903	230.103	0.165	0.267
-238.888	321.603	-0.271	-0.510
-237.873	511.699	-0.196	-0.451
-236.859	405.086	0.073	0.152
-235.844	-200.000	0.001	0.355
-234.830	-200.000	0.094	-0.622
-233.815	105.291	-0.308	-0.360
-232.800	17.625	-0.289	-0.227
-231.786	800.000	-0.156	-0.518
-230.771	-200.000	-0.070	-0.501
-229.757	-25.017	0.423	0.248
-228.742	-135.775	-0.577	-0.067
-227.727	-15.749	-0.053	-0.033
-226.713	-83.178	0.846	0.269
-225.698	-200.000	-0.041	0.555
-224.684	342.268	-0.136	0.264
-223.669	-71.565	1.141	-0.422
-222.655	-200.000	-0.008	0.265
-221.640	-81.466	-0.268	0.087
-220.625	-131.833	-0.321	0.042
-219.611	-200.000	0.038	0.322
-218.596	-137.431	0.425	0.048
-217.582	-36.644	-0.127	-0.068
-216.567	318.874	-0.302	0.567
-215.552	-95.090	-0.631	0.169
-214.538	29.744	0.335	0.282
-213.523	-96.690	0.178	0.046
-212.509	-178.997	-0.361	0.008
-211.494	55.022	0.065	-0.062
-210.479	-200.000	-0.110	0.664
-209.465	-200.000	0.123	0.882
-208.450	-41.182	0.792	-0.404
-207.436	-30.858	0.428	-0.239
-206.421	104.620	-0.653	-0.761
-205.406	800.000	0.077	0.222
-204.392	-200.000	-0.057	0.405
-203.377	-11.008	-0.078	-0.051
-202.363	12.997	-0.445	-0.341
-201.348	-75.029	0.252	-0.089
-200.333	-92.899	-0.860	0.237
-199.319	-137.110	-0.431	-0.049
-198.304	800.000	0.409	-1.245
-197.290	36.819	0.167	0.146
-196.275	-97.956	0.504	0.128
-195.260	800.000	-0.139	0.466
-194.246	-200.000	-0.086	-0.518
-193.231	51.419	-0.193	0.181
-192.217	800.000	-0.083	0.329
-191.202	-200.000	0.134	0.960
-190.187	-200.000	0.683	-0.001
-189.173	-152.884	0.353	0.025
-188.158	800.000	0.136	0.385
-187.144	194.205	-0.514	-0.769
-186.129	242.960	0.358	-0.593
-185.114	-156.625	0.673	0.041
-184.100	-16.132	-0.028	-0.018
-183.085	-39.125	-0.642	0.333
-182.071	62.701	0.323	0.319
-181.056	268.549	-0.080	-0.138
-180.042	227.770	-0.199	-0.319
-179.027	-138.651	0.618	0.067
-178.012	-30.042	-0.565	-0.318
-176.998	-54.507	-0.939	-0.420
-175.983	-144.491	-0.790	-0.072
-174.969	-200.000	-0.014	0.322
-173.954	-148.253	0.915	-0.074
-172.939	-200.000	-0.125	0.810
-171.925	52.429	0.075	-0.070
-170.910	277.031	-0.314	-0.550
-169.896	309.821	0.250	0.462
-168.881	-120.216	0.785	0.132
-167.866	-21.787	0.456	0.274
-166.852	121.234	-0.482	0.593
-165.837	-200.000	0.079	0.546
-164.823	353.913	0.274	0.536
-163.808	-20.791	-0.231	-0.140
-162.793	-104.823	-0.625	-0.142
-161.779	-200.000	0.055	1.181
-160.764	42.942	-0.146	0.131
-159.750	-83.931	-0.847	0.266
-158.735	82.581	-0.634	-0.680
-157.720	-81.080	0.614	-0.201
-156.706	800.000	-0.137	-0.541
-155.691	35.663	0.533	0.462
-154.677	126.626	-0.359	-0.449
-153.662	175.434	-0.212	0.303
-152.647	-19.594	-0.409	0.250
-151.633	-62.475	-0.423	-0.173
-150.618	-200.000	-0.191	-1.015
-149.604	29.625	0.459	0.385
-148.589	-61.914	-0.071	0.029
-147.574	294.479	-0.155	0.279
-146.560	175.658	0.271	-0.388
-145.545	94.622	0.035	-0.039
-144.531	-114.737	0.582	-0.110
-143.516	-50.320	0.645	-0.301
-142.502	134.074	-0.323	0.413
-141.487	-200.000	0.189	1.090
-140.472	-200.000	-0.047	0.351
-139.458	760.468	0.287	-0.766
-138.443	-54.621	0.127	-0.057
-137.429	496.260	0.109	0.246
-136.414	19.904	0.458	0.364
-135.399	-80.174	-0.259	-0.086
-134.385	125.361	0.247	-0.307
-133.370	281.940	-0.246	-0.435
-132.356	-46.515	0.254	0.123
-131.341	-58.914	0.442	-0.188
-130.326	111.402	-0.204	-0.242
-129.312	-55.363	0.480	-0.212
-128.297	77.226	-0.307	0.322
-127.283	-135.932	0.610	-0.071
-126.268	295.281	0.321	0.578
-125.253	-13.648	-0.264	0.168
-124.239	-64.155	0.538	0.216
-123.224	-32.888	0.058	0.032
-122.210	133.114	-0.326	-0.415
-121.195	-54.418	0.612	0.273
