DTS Sentinel unit serial number:	SN413079Multiplexer serial number:	ORYXHardware model number:	OX4-SRSoftware version number:	ORYX F/W v4.00 Oryx Data Collector v3.7.2.0data status	okinstallation	princeton_trtdifferential loss correction	single-endedforward channel	channel 1reverse channel	N/Adate	2019/09/14time	12:30:35forward acquisition time	60.00reverse acquisition time	0.00gamma	496.2192k internal	0.2295k external	0.2295temperature offset calibration	1.0080default loss term (dB/km)	0.3790temperature slope calibration	1.0000multiplexer offset coefficient	1.0000multiplexer slope coefficient	1.0000fibre end	0.00T internal ref (°C)	37.94T ext. ref 1 (°C)	4.75T ext. ref 2 (°C)	34.67length (m)	temperature (°C)	Stokes	anti-Stokes-747.200	61.746	0.181	-0.184
-746.185	-38.611	-0.179	-0.097
-745.171	-58.381	-0.140	-0.062
-744.156	91.034	0.143	0.164
-743.142	207.765	-0.041	-0.066
-742.127	800.000	0.064	0.284
-741.112	-140.895	0.127	-0.013
-740.098	588.539	0.142	-0.358
-739.083	-127.721	-0.025	-0.004
-738.069	106.844	-0.109	-0.132
-737.054	-200.000	-0.071	0.457
-736.039	800.000	-0.094	0.302
-735.025	473.369	0.126	0.290
-734.010	-147.425	-0.054	0.005
-732.996	800.000	0.088	-0.333
-731.981	-200.000	0.002	0.104
-730.966	146.389	0.101	-0.139
-729.952	-19.197	-0.209	-0.133
-728.937	271.892	0.095	-0.171
-727.923	-48.599	-0.315	0.155
-726.908	800.000	-0.069	0.215
-725.894	-162.468	0.201	0.010
-724.879	-136.879	-0.075	0.009
-723.864	26.844	0.080	-0.068
-722.850	-133.998	0.216	-0.027
-721.835	185.039	-0.258	-0.390
-720.821	-200.000	-0.022	-0.109
-719.806	80.778	0.172	0.189
-718.791	163.253	0.149	-0.215
-717.777	188.751	-0.145	-0.221
-716.762	50.931	-0.190	0.183
-715.748	-120.488	0.210	-0.036
-714.733	-200.000	-0.060	0.429
-713.718	-200.000	-0.005	0.032
-712.704	26.423	-0.019	-0.016
-711.689	76.386	0.152	-0.165
-710.675	-82.507	-0.326	0.108
-709.660	-200.000	0.019	0.213
-708.645	-80.541	0.304	-0.103
-707.631	-200.000	0.059	-0.619
-706.616	-62.309	0.191	-0.081
-705.602	-64.865	0.114	0.047
-704.587	-76.344	-0.221	-0.079
-703.572	-5.469	-0.318	-0.223
-702.558	305.755	0.137	0.260
-701.543	-3.135	-0.200	0.143
-700.529	-90.678	0.153	0.045
-699.514	-85.188	0.243	-0.078
-698.499	-106.715	-0.434	0.098
-697.485	-111.899	-0.135	0.028
-696.470	-92.885	-0.169	-0.048
-695.456	800.000	-0.095	0.301
-694.441	-15.355	0.103	-0.067
-693.426	38.996	-0.303	-0.276
-692.412	-86.355	-0.211	0.066
-691.397	-200.000	-0.002	-0.337
-690.383	-110.832	-0.334	0.070
-689.368	141.967	-0.172	-0.233
-688.354	141.400	0.072	0.097
-687.339	112.790	-0.079	-0.097
-686.324	464.454	0.079	0.180
-685.310	127.119	0.140	0.181
-684.295	-45.788	0.166	0.084
-683.281	800.000	0.006	0.024
-682.266	800.000	-0.098	0.361
-681.251	31.401	0.099	0.087
-680.237	-133.946	-0.324	-0.041
-679.222	-125.264	0.304	-0.047
-678.208	-141.086	0.048	0.005
-677.193	185.728	-0.119	-0.180
-676.178	-117.409	-0.307	-0.057
-675.164	263.195	0.083	-0.146
-674.149	-59.064	-0.150	0.066
-673.135	-200.000	0.001	0.285
-672.120	-104.376	0.240	-0.057
-671.105	31.638	0.199	0.174
-670.091	9.283	-0.179	-0.138
-669.076	-111.797	-0.064	-0.013
-668.062	-30.907	0.156	-0.090
-667.047	25.565	0.258	-0.218
-666.032	-200.000	-0.025	0.140
-665.018	-96.896	-0.370	-0.099
-664.003	286.966	-0.140	-0.258
-662.989	-200.000	0.021	0.211
-661.974	-200.000	-0.045	-0.227
-660.959	186.858	0.108	-0.164
-659.945	89.239	0.202	-0.229
-658.930	-200.000	0.064	-0.285
-657.916	103.497	-0.063	0.075
-656.901	160.238	0.079	0.112
-655.886	442.638	0.104	0.231
-654.872	-82.807	-0.050	0.016
-653.857	-77.765	-0.344	0.121
-652.843	-53.927	-0.148	-0.069
-651.828	400.364	0.169	-0.361
-650.814	69.415	-0.020	-0.021
-649.799	-86.511	-0.085	-0.027
-648.784	14.774	0.176	0.140
-647.770	-200.000	0.019	0.087
-646.755	-200.000	-0.003	0.019
-645.741	36.109	-0.173	-0.155
-644.726	55.552	-0.100	-0.099
-643.711	-88.335	-0.280	0.085
-642.697	-200.000	0.013	-0.108
-641.682	-48.180	0.218	-0.107
-640.668	-25.674	-0.181	-0.109
-639.653	591.709	-0.145	-0.365
-638.638	630.995	0.010	-0.026
-637.624	297.843	0.092	0.172
-636.609	71.232	0.078	0.082
-635.595	166.032	0.169	0.244
-634.580	621.829	-0.162	-0.415
-633.565	800.000	-0.067	-0.227
-632.551	-160.080	-0.068	0.004
-631.536	412.259	0.022	-0.048
-630.522	-151.312	0.034	0.003
-629.507	285.616	0.080	0.147
-628.492	-53.828	-0.146	-0.068
-627.478	-9.525	0.054	-0.036
-626.463	-34.664	-0.142	0.079
-625.449	-104.458	-0.085	0.020
-624.434	18.721	-0.236	-0.192
-623.419	-200.000	-0.003	-0.316
-622.405	-109.174	-0.072	0.016
-621.390	3.841	0.255	0.190
-620.376	-200.000	0.029	-0.160
-619.361	95.158	0.203	0.235
-618.346	-200.000	-0.036	0.228
-617.332	-51.617	-0.085	0.040
-616.317	-174.510	-0.190	0.006
-615.303	-67.913	-0.345	-0.137
-614.288	15.676	0.098	0.079
-613.273	438.043	0.044	-0.098
-612.259	-200.000	-0.026	0.347
-611.244	-0.838	-0.145	-0.104
-610.230	-150.051	-0.218	0.017
-609.215	156.616	0.103	-0.144
-608.201	-64.165	-0.335	0.139
-607.186	-45.917	-0.118	0.059
-606.171	800.000	0.054	-0.238
-605.157	-200.000	-0.084	0.000
-604.142	800.000	-0.079	-0.233
-603.128	-115.596	0.120	0.023
-602.113	351.532	-0.140	0.282
-601.098	-200.000	0.053	-0.242
-600.084	800.000	-0.100	0.393
-599.069	-124.834	0.093	-0.015
-598.055	152.455	0.237	-0.328
-597.040	800.000	-0.055	-0.192
-596.025	-110.228	-0.114	-0.024
-595.011	-200.000	-0.016	-0.073
-593.996	-115.279	0.130	-0.025
-592.982	800.000	0.049	0.165
-591.967	-13.941	-0.152	0.100
-590.952	-85.788	0.336	-0.106
-589.938	693.494	-0.066	0.175
-588.923	-200.000	0.016	0.286
-587.909	-131.758	0.194	0.026
-586.894	800.000	-0.012	0.046
-585.879	-200.000	-0.054	0.318
-584.865	56.315	0.232	-0.229
-583.850	-76.429	-0.155	0.055
-582.836	800.000	0.026	-0.084
-581.821	171.149	-0.108	-0.158
-580.806	30.114	-0.345	0.299
-579.792	17.059	0.179	0.144
-578.777	59.004	-0.143	-0.143
-577.763	29.447	-0.061	0.052
-576.748	207.990	-0.081	0.128
-575.733	106.278	-0.073	0.088
-574.719	-163.562	0.158	-0.008
-573.704	-110.497	-0.153	-0.032
-572.690	137.276	0.370	-0.492
-571.675	-157.894	0.148	-0.009
-570.661	-46.130	0.271	-0.136
-569.646	800.000	0.009	0.034
-568.631	800.000	-0.086	-0.328
-567.617	-72.248	-0.161	0.061
-566.602	67.638	-0.216	0.224
-565.588	-28.331	0.239	-0.140
-564.573	-34.909	0.337	0.187
-563.558	-27.426	0.112	0.066
-562.544	-73.762	-0.239	-0.088
-561.529	20.744	-0.061	-0.050
-560.515	39.887	0.142	-0.130
-559.500	-200.000	0.014	0.073
-558.485	82.932	-0.109	-0.120
-557.471	91.418	-0.154	0.176
-556.456	-41.695	0.256	0.133
-555.442	-200.000	-0.006	0.076
-554.427	800.000	-0.049	0.170
-553.412	-89.458	-0.170	-0.051
-552.398	-124.791	0.195	0.031
-551.383	146.083	-0.121	-0.164
-550.369	-116.717	0.206	-0.038
-549.354	-200.000	0.033	-0.347
-548.339	-98.082	0.237	-0.062
-547.325	-68.418	-0.132	0.052
-546.310	144.460	-0.160	0.217
-545.296	227.114	-0.058	0.095
-544.281	51.271	-0.115	-0.111
-543.266	-147.929	-0.237	-0.020
-542.252	-126.473	-0.201	-0.030
-541.237	800.000	0.066	0.217
-540.223	470.540	0.023	-0.053
-539.208	-129.790	-0.169	0.024
-538.193	114.919	0.051	0.063
-537.179	25.921	0.216	-0.182
-536.164	-82.941	0.090	0.030
-535.150	369.227	-0.252	0.516
-534.135	-102.787	0.066	0.016
-533.121	-132.593	-0.186	-0.024
-532.106	3.421	0.159	-0.118
-531.091	-93.200	0.064	0.018
-530.077	-78.475	-0.215	-0.075
-529.062	166.985	0.084	0.121
-528.048	-141.715	0.298	-0.030
-527.033	-66.652	-0.507	-0.204
-526.018	-200.000	-0.052	0.254
-525.004	459.821	-0.018	-0.041
-523.989	67.293	-0.223	0.231
-522.975	-17.098	0.116	-0.074
-521.960	-82.720	-0.116	-0.038
-520.945	-200.000	0.029	0.145
-519.931	-169.844	-0.119	-0.004
-518.916	215.865	0.108	0.174
-517.902	-34.901	0.229	-0.127
-516.887	-21.965	-0.170	0.105
-515.872	-165.753	-0.204	0.009
-514.858	-85.201	-0.039	-0.012
-513.843	44.370	-0.093	-0.087
-512.829	223.830	-0.160	-0.261
-511.814	-158.881	-0.113	-0.007
-510.799	25.649	-0.312	0.263
-509.785	-111.652	-0.240	-0.049
-508.770	-200.000	0.008	0.380
-507.756	-6.265	0.147	0.102
-506.741	567.853	-0.074	0.181
-505.726	-73.375	-0.031	-0.012
-504.712	506.410	-0.076	-0.179
-503.697	800.000	0.078	-0.292
-502.683	-24.512	-0.041	-0.025
-501.668	-161.162	0.377	-0.020
-500.653	-91.533	0.205	0.059
-499.639	-126.295	0.128	0.019
-498.624	-88.538	-0.270	-0.082
-497.610	-180.742	0.159	-0.003
-496.595	-75.030	-0.217	0.079
-495.581	289.315	0.084	0.155
-494.566	-200.000	0.029	-0.246
-493.551	-74.888	-0.309	-0.112
-492.537	-181.251	0.316	-0.006
-491.522	-149.062	0.235	0.019
-490.508	-173.503	-0.357	0.011
-489.493	-41.511	0.170	-0.088
-488.478	-71.080	0.314	-0.119
-487.464	-33.897	-0.307	0.171
-486.449	192.483	0.134	0.204
-485.435	-25.080	-0.183	0.110
-484.420	-0.720	-0.237	0.170
-483.405	-200.000	-0.002	0.044
-482.391	800.000	-0.025	0.099
-481.376	321.079	0.103	-0.198
-480.362	86.418	0.092	-0.103
-479.347	204.874	-0.034	0.053
-478.332	529.308	-0.052	0.125
-477.318	55.854	-0.188	0.185
-476.303	-69.382	0.140	-0.054
-475.289	138.490	0.133	-0.177
-474.274	-150.053	-0.328	-0.026
-473.259	-200.000	-0.020	-0.151
-472.245	-163.467	-0.072	0.003
-471.230	-105.574	0.306	-0.070
-470.216	-86.024	0.219	-0.068
-469.201	8.247	-0.097	0.074
-468.186	-200.000	0.003	0.175
-467.172	416.860	0.056	-0.121
-466.157	39.254	0.242	0.219
-465.143	-122.966	0.244	-0.040
-464.128	-200.000	-0.014	-0.216
-463.113	800.000	-0.061	-0.221
-462.099	220.002	-0.011	0.018
-461.084	-117.992	-0.208	-0.038
-460.070	699.433	-0.130	0.346
-459.055	-200.000	-0.016	0.264
-458.040	-200.000	-0.002	-0.071
-457.026	-200.000	-0.035	-0.169
-456.011	-175.531	0.061	0.002
-454.997	104.740	0.239	0.285
-453.982	-126.283	-0.185	-0.028
-452.968	177.371	-0.181	0.267
-451.953	-200.000	0.020	-0.220
-450.938	-170.893	-0.104	-0.004
-449.924	-200.000	0.106	-0.469
-448.909	-186.722	0.126	-0.002
-447.895	800.000	-0.019	0.070
-446.880	-156.571	-0.279	0.018
-445.865	-74.329	-0.125	0.046
-444.851	-186.275	0.275	-0.004
-443.836	-56.393	0.271	0.122
-442.822	-4.979	-0.181	-0.126
-441.807	-200.000	0.000	0.204
-440.792	-33.862	0.173	0.096
-439.778	800.000	-0.043	-0.143
-438.763	-164.473	0.384	0.018
-437.749	-25.986	0.232	-0.138
-436.734	-200.000	0.022	0.173
-435.719	335.324	0.068	-0.133
-434.705	67.872	-0.208	0.215
-433.690	-200.000	0.044	0.256
-432.676	800.000	0.083	-0.349
-431.661	800.000	-0.019	0.066
-430.646	-128.239	0.122	0.018
-429.632	-64.094	0.134	0.055
-428.617	169.279	0.201	0.289
-427.603	-32.264	0.212	-0.120
-426.588	184.688	0.088	-0.132
-425.573	19.737	0.115	0.093
-424.559	172.606	0.226	-0.328
-423.544	-200.000	-0.052	-0.231
-422.530	92.204	-0.188	0.214
-421.515	640.790	-0.106	0.273
-420.500	-13.071	-0.231	0.152
-419.486	800.000	-0.081	-0.241
-418.471	181.683	-0.111	-0.166
-417.457	6.433	0.181	0.136
-416.442	543.474	-0.135	-0.324
-415.428	-200.000	0.005	-0.297
-414.413	-171.252	-0.319	0.011
-413.398	516.325	0.138	0.326
-412.384	-0.696	-0.287	0.205
-411.369	11.393	0.190	-0.147
-410.355	-200.000	0.014	0.235
-409.340	37.416	0.197	0.176
-408.325	-114.234	-0.098	0.019
-407.311	-200.000	0.012	-0.313
-406.296	-107.427	0.099	-0.022
-405.282	444.816	0.073	0.162
-404.267	117.702	-0.216	0.268
-403.252	-112.251	-0.069	-0.014
-402.238	28.851	0.137	-0.117
-401.223	72.106	-0.222	-0.233
-400.209	-32.803	-0.397	0.223
-399.194	-104.215	0.148	0.035
-398.179	637.072	-0.107	0.273
-397.165	322.571	-0.169	-0.324
-396.150	370.673	0.086	0.176
-395.136	-86.670	-0.228	-0.070
-394.121	-93.261	-0.059	0.016
-393.106	-69.542	-0.083	-0.032
-392.092	-95.302	-0.408	0.111
-391.077	-144.107	0.147	0.014
-390.063	-1.108	0.107	0.076
-389.048	-198.451	0.302	-0.002
-388.033	516.840	-0.085	0.201
-387.019	32.770	-0.049	0.042
-386.004	800.000	0.059	-0.227
-384.990	24.042	0.119	-0.099
-383.975	-68.156	0.398	0.156
-382.960	-200.000	-0.010	-0.448
-381.946	-9.913	0.312	-0.209
-380.931	215.965	-0.217	-0.348
-379.917	-200.000	0.056	-0.351
-378.902	83.804	0.152	-0.167
-377.888	174.836	0.175	0.255
-376.873	342.446	-0.153	0.301
-375.858	-200.000	-0.046	0.226
-374.844	-58.321	0.081	0.036
-373.829	-27.602	-0.117	-0.069
-372.815	-200.000	-0.029	0.173
-371.800	-58.535	0.244	0.107
-370.785	26.221	0.312	-0.263
-369.771	800.000	0.042	-0.132
-368.756	-78.768	0.149	-0.051
-367.742	-54.460	0.111	0.051
-366.727	-200.000	-0.486	-0.000
-365.712	615.860	0.094	0.238
-364.698	271.791	-0.079	0.140
-363.683	236.470	0.151	0.252
-362.669	-186.397	0.069	-0.001
-361.654	-200.000	0.065	-0.313
-360.639	-155.451	0.220	0.014
-359.625	-200.000	0.055	-0.267
-358.610	210.640	-0.124	-0.197
-357.596	294.032	-0.108	-0.199
-356.581	-153.387	0.283	0.020
-355.566	-75.521	0.111	0.040
-354.552	-200.000	-0.003	-0.196
-353.537	-121.824	0.077	0.013
-352.523	87.453	-0.101	-0.113
-351.508	-59.218	-0.150	0.065
-350.493	138.377	0.182	-0.241
-349.479	-34.663	-0.104	-0.058
-348.464	-33.892	0.205	0.113
-347.450	259.099	-0.151	-0.263
-346.435	-200.000	0.079	-0.530
-345.420	45.341	0.191	-0.178
-344.406	-200.000	-0.060	-0.478
-343.391	168.122	0.075	-0.107
-342.377	92.431	-0.159	-0.181
-341.362	-151.796	0.137	0.010
-340.348	9.740	0.393	0.300
-339.333	-200.000	-0.033	-0.177
-338.318	185.325	0.078	-0.116
-337.304	110.051	0.200	0.241
-336.289	-84.053	-0.242	-0.077
-335.275	-51.971	0.229	-0.107
-334.260	79.309	0.132	-0.142
-333.245	800.000	0.101	0.335
-332.231	-99.951	-0.118	-0.030
-331.216	800.000	-0.094	0.276
-330.202	-163.469	0.304	-0.015
-329.187	30.186	-0.072	0.062
-328.172	-49.511	0.323	0.155
-327.158	-32.849	-0.065	-0.036
-326.143	-120.504	-0.334	0.057
-325.129	107.936	0.183	0.219
-324.114	36.814	0.273	-0.243
-323.099	358.421	-0.070	0.141
-322.085	-149.188	0.119	-0.010
-321.070	248.485	-0.030	-0.052
-320.056	-44.072	-0.218	0.110
-319.041	800.000	-0.093	-0.269
-318.026	-23.121	0.162	-0.098
-317.012	-200.000	0.028	0.152
-315.997	800.000	-0.100	0.323
-314.983	800.000	-0.112	-0.357
-313.968	139.657	0.220	-0.292
-312.953	446.612	-0.181	-0.400
-311.939	-111.277	-0.245	-0.050
-310.924	7.144	-0.125	0.094
-309.910	-90.503	-0.176	0.051
-308.895	50.551	0.163	-0.155
-307.880	-200.000	0.026	-0.273
-306.866	800.000	-0.079	-0.336
-305.851	444.477	-0.127	-0.280
-304.837	447.186	0.070	0.155
-303.822	-49.383	-0.516	0.248
-302.807	-67.183	0.116	-0.046
-301.793	24.835	-0.097	0.080
-300.778	-200.000	0.010	0.285
-299.764	-91.391	0.276	-0.079
-298.749	800.000	0.014	-0.043
-297.735	800.000	-0.036	-0.136
-296.720	673.920	0.054	-0.140
-295.705	-66.054	0.189	-0.076
-294.691	-102.548	0.197	-0.047
-293.676	110.557	0.232	-0.281
-292.662	800.000	-0.065	-0.196
-291.647	-59.197	-0.076	0.033
-290.632	40.437	-0.175	-0.158
-289.618	-67.060	-0.233	0.092
-288.603	2.213	-0.211	0.153
-287.589	-93.943	-0.199	0.055
-286.574	800.000	-0.067	-0.188
-285.559	-200.000	-0.008	0.066
-284.545	-162.799	-0.200	0.010
-283.530	-31.843	0.433	0.244
-282.516	63.581	-0.173	-0.174
-281.501	314.566	-0.161	-0.305
-280.486	-200.000	0.010	0.277
-279.472	273.989	0.226	0.401
-278.457	-62.794	0.263	0.109
-277.443	-126.935	0.253	-0.037
-276.428	-200.000	0.025	-0.163
-275.413	246.495	0.002	0.004
-274.399	-107.720	-0.297	-0.065
-273.384	518.685	0.125	0.295
-272.370	29.550	0.185	-0.158
-271.355	69.467	-0.039	-0.040
-270.340	800.000	-0.011	-0.045
-269.326	-75.246	-0.327	0.117
-268.311	224.564	0.169	-0.274
-267.297	800.000	0.030	-0.095
-266.282	-99.394	0.060	0.015
-265.267	-79.230	-0.344	-0.117
-264.253	800.000	0.081	0.231
-263.238	550.138	0.049	-0.119
-262.224	92.506	0.163	-0.184
-261.209	-200.000	-0.034	-0.252
-260.195	-1.457	0.054	0.038
-259.180	332.730	0.085	0.165
-258.165	-78.244	-0.356	0.123
-257.151	-200.000	-0.018	-0.307
-256.136	355.788	-0.123	-0.245
-255.122	-85.860	0.295	0.092
-254.107	165.870	-0.205	-0.290
-253.092	-200.000	0.002	-0.044
-252.078	-32.313	-0.129	0.072
-251.063	70.033	-0.061	0.063
-250.049	91.268	0.042	0.048
-249.034	-98.005	-0.054	0.014
-248.019	115.325	0.030	0.037
-247.005	151.297	0.076	-0.104
-245.990	-200.000	0.095	-0.573
-244.976	280.363	0.124	-0.222
-243.961	658.379	0.019	0.050
-242.946	82.978	-0.079	0.087
-241.932	-200.000	0.017	-0.178
-240.917	-125.688	-0.245	0.037
-239.903	98.765	0.039	-0.045
-238.888	-24.783	0.253	-0.151
-237.873	-200.000	-0.013	0.154
-236.859	-0.550	0.332	0.236
-235.844	197.951	0.042	-0.065
-234.830	73.153	-0.234	0.245
-233.815	-110.927	-0.182	-0.038
-232.800	524.604	-0.018	-0.043
-231.786	101.011	0.138	0.161
-230.771	-200.000	-0.024	0.122
-229.757	499.683	-0.138	-0.318
-228.742	-200.000	-0.008	0.204
-227.727	20.184	0.073	-0.059
-226.713	800.000	-0.054	0.191
-225.698	-69.319	-0.261	-0.101
-224.684	-82.843	-0.351	-0.113
-223.669	478.805	0.076	0.172
-222.655	-151.900	0.267	-0.020
-221.640	-45.634	-0.155	0.077
-220.625	-200.000	-0.005	-0.184
-219.611	13.673	0.051	-0.040
-218.596	377.942	-0.016	0.033
-217.582	-77.791	-0.396	0.137
-216.567	-200.000	-0.020	0.261
-215.552	35.938	-0.095	-0.084
-214.538	150.164	0.213	0.289
-213.523	-25.026	0.114	-0.068
-212.509	800.000	-0.066	-0.270
-211.494	-37.176	0.110	0.059
-210.479	734.130	-0.034	0.092
-209.465	42.246	-0.217	-0.197
-208.450	32.926	0.301	0.261
-207.436	41.905	-0.157	0.142
-206.421	-141.799	0.271	-0.027
-205.406	115.953	0.091	0.111
-204.392	-151.256	0.186	-0.014
-203.377	154.353	-0.296	0.406
-202.363	109.711	0.047	0.057
-201.348	-200.000	-0.024	0.106
-200.333	273.809	-0.085	0.151
-199.319	137.722	-0.178	-0.233
-198.304	800.000	0.104	-0.288
-197.290	635.926	0.092	0.232
-196.275	-4.655	0.258	-0.178
-195.260	-92.469	-0.320	0.090
-194.246	-106.088	0.450	0.101
-193.231	-69.615	-0.082	-0.032
-192.217	284.755	0.094	0.169
-191.202	106.350	0.145	0.172
-190.187	-87.991	-0.481	0.144
-189.173	800.000	-0.032	-0.117
-188.158	318.808	0.106	0.201
-187.144	-16.369	0.156	-0.099
-186.129	-200.000	0.036	-0.382
-185.114	77.180	-0.122	0.130
-184.100	-171.949	0.542	-0.018
-183.085	185.712	-0.145	0.215
-182.071	-200.000	0.030	-0.458
-181.056	-200.000	0.042	-0.397
-180.042	19.947	-0.286	0.230
-179.027	800.000	-0.048	0.142
-178.012	-73.656	0.226	0.082
-176.998	-200.000	-0.016	0.105
-175.983	800.000	0.120	0.500
-174.969	-200.000	-0.025	0.138
-173.954	-200.000	-0.031	0.191
-172.939	173.896	-0.171	0.247
-171.925	179.794	0.112	0.164
-170.910	-102.845	0.101	0.024
-169.896	211.380	0.105	-0.166
-168.881	-131.646	0.361	-0.047
-167.866	-90.948	-0.167	0.048
-166.852	629.914	-0.101	0.255
-165.837	-87.568	0.190	-0.057
-164.823	-149.938	0.344	0.027
-163.808	-200.000	-0.040	-0.324
-162.793	499.025	0.121	0.279
-161.779	467.572	-0.089	0.199
-160.764	-200.000	-0.033	0.429
-159.750	-98.115	-0.276	-0.071
-158.735	-52.070	0.169	-0.078
-157.720	184.173	-0.105	0.156
-156.706	117.108	-0.303	0.372
-155.691	63.242	-0.247	0.247
-154.677	281.159	0.098	0.176
-153.662	-17.284	0.197	-0.124
-152.647	-24.039	-0.118	0.071
-151.633	-200.000	0.037	0.571
-150.618	800.000	-0.078	0.321
-149.604	-124.740	0.251	0.039
-148.589	-6.174	-0.014	-0.010
-147.574	-200.000	0.009	-0.080
-146.560	-23.908	-0.155	-0.093
-145.545	-200.000	-0.015	-0.091
-144.531	-38.048	-0.262	-0.139
-143.516	336.287	0.054	0.105
-142.502	800.000	-0.074	-0.214
-141.487	-200.000	-0.021	-0.129
-140.472	54.093	0.188	0.180
-139.458	800.000	-0.074	0.242
-138.443	176.663	0.198	-0.287
-137.429	299.193	0.029	-0.053
-136.414	301.197	-0.172	0.317
-135.399	406.976	0.107	0.226
-134.385	540.800	-0.170	0.403
-133.370	800.000	-0.090	0.381
-132.356	-200.000	-0.016	0.331
-131.341	376.171	-0.078	0.159
-130.326	139.336	-0.068	-0.089
-129.312	-23.091	0.121	-0.073
-128.297	-57.033	-0.077	-0.034
-127.283	-82.147	-0.076	0.025
-126.268	-1.954	-0.171	0.120
-125.253	-56.067	-0.300	-0.133
-124.239	9.320	-0.345	-0.260
-123.224	211.683	0.178	0.279
-122.210	-200.000	-0.037	0.313
