DTS Sentinel unit serial number:	SN413079Multiplexer serial number:	ORYXHardware model number:	OX4-SRSoftware version number:	ORYX F/W v4.00 Oryx Data Collector v3.7.2.0data status	okinstallation	princeton_trtdifferential loss correction	single-endedforward channel	channel 1reverse channel	N/Adate	2019/09/18time	14:10:35forward acquisition time	60.00reverse acquisition time	0.00gamma	496.2192k internal	0.2313k external	0.2313temperature offset calibration	0.9985default loss term (dB/km)	0.3790temperature slope calibration	1.0000multiplexer offset coefficient	1.0000multiplexer slope coefficient	1.0000fibre end	0.00T internal ref (°C)	34.37T ext. ref 1 (°C)	0.67T ext. ref 2 (°C)	29.29length (m)	temperature (°C)	Stokes	anti-Stokes-747.200	-89.953	0.261	0.077
-746.185	-149.180	0.409	0.033
-745.171	-52.113	-0.079	-0.037
-744.156	6.529	-0.407	0.307
-743.142	247.454	0.037	0.064
-742.127	-31.922	-0.189	0.107
-741.112	283.072	-0.173	0.315
-740.098	436.698	-0.025	-0.054
-739.083	638.281	0.089	0.230
-738.069	-200.000	0.032	0.145
-737.054	-200.000	0.014	-0.162
-736.039	60.083	0.129	-0.130
-735.025	222.762	0.041	-0.067
-734.010	-13.253	-0.188	-0.124
-732.996	-26.763	-0.182	-0.108
-731.981	800.000	-0.036	0.124
-730.966	-200.000	0.033	0.211
-729.952	-60.071	-0.513	0.222
-728.937	-200.000	0.030	0.252
-727.923	181.172	0.074	0.110
-726.908	-200.000	0.018	-0.331
-725.894	376.754	0.088	-0.182
-724.879	-88.627	-0.102	-0.031
-723.864	7.196	0.067	-0.051
-722.850	485.217	-0.049	-0.113
-721.835	-1.312	-0.085	-0.061
-720.821	38.757	0.156	0.141
-719.806	-144.987	0.192	0.018
-718.791	-111.384	-0.250	-0.052
-717.777	-160.227	0.329	0.018
-716.762	-137.455	0.070	0.008
-715.748	346.929	-0.120	-0.240
-714.733	-127.853	-0.221	-0.032
-713.718	599.984	-0.092	-0.232
-712.704	800.000	0.040	0.160
-711.689	145.283	-0.147	-0.200
-710.675	80.993	0.138	0.151
-709.660	-200.000	0.019	-0.234
-708.645	-83.469	-0.139	-0.045
-707.631	800.000	-0.002	0.010
-706.616	334.757	0.141	-0.276
-705.602	84.953	0.096	-0.106
-704.587	-36.802	-0.231	-0.125
-703.572	-200.000	-0.020	-0.160
-702.558	-32.242	0.069	-0.039
-701.543	800.000	0.056	-0.159
-700.529	800.000	0.074	-0.210
-699.514	105.894	0.038	-0.046
-698.499	23.313	0.239	0.199
-697.485	-80.138	-0.190	0.064
-696.470	772.835	-0.086	-0.239
-695.456	800.000	-0.112	0.389
-694.441	237.124	-0.223	0.374
-693.426	42.968	0.332	-0.307
-692.412	-16.592	-0.150	0.096
-691.397	-133.325	-0.088	-0.011
-690.383	-200.000	0.029	-0.237
-689.368	-200.000	0.019	-0.171
-688.354	-200.000	0.009	-0.296
-687.339	-54.518	0.052	-0.024
-686.324	-200.000	0.010	-0.356
-685.310	-139.024	-0.228	0.025
-684.295	-166.827	0.167	0.007
-683.281	-5.259	0.211	-0.147
-682.266	226.542	-0.131	0.215
-681.251	-43.112	-0.256	0.131
-680.237	-72.637	-0.251	0.094
-679.222	642.337	0.122	-0.313
-678.208	800.000	-0.046	-0.129
-677.193	489.939	0.066	-0.152
-676.178	800.000	0.063	-0.205
-675.164	-76.698	-0.288	0.102
-674.149	796.107	-0.041	-0.115
-673.135	-29.207	-0.161	-0.093
-672.120	248.622	-0.085	0.145
-671.105	10.233	-0.160	-0.123
-670.091	-40.889	-0.149	0.078
-669.076	90.219	0.020	0.023
-668.062	-49.565	0.198	-0.095
-667.047	-11.501	0.354	0.235
-666.032	64.709	-0.021	0.022
-665.018	-52.947	0.197	0.092
-664.003	-76.215	-0.189	-0.067
-662.989	-200.000	-0.015	-0.105
-661.974	171.476	-0.074	-0.107
-660.959	-43.120	-0.194	0.099
-659.945	-94.791	0.332	0.091
-658.930	127.313	0.147	-0.189
-657.916	-72.034	-0.488	-0.183
-656.901	-23.106	-0.239	-0.146
-655.886	-95.496	0.143	0.039
-654.872	420.078	0.085	-0.184
-653.857	-141.121	-0.066	0.007
-652.843	-187.006	0.240	-0.003
-651.828	466.620	0.032	0.073
-650.814	119.155	-0.058	0.072
-649.799	-200.000	0.015	-0.190
-648.784	800.000	-0.108	0.329
-647.770	325.706	-0.038	0.074
-646.755	-19.608	0.251	-0.157
-645.741	56.736	-0.175	-0.173
-644.726	-200.000	-0.057	0.258
-643.711	-102.083	-0.181	-0.044
-642.697	241.362	-0.088	-0.148
-641.682	460.899	0.074	-0.166
-640.668	-200.000	-0.039	-0.263
-639.653	-96.325	-0.326	-0.087
-638.638	-115.008	-0.232	0.045
-637.624	-131.413	0.218	-0.029
-636.609	434.744	-0.084	-0.184
-635.595	-99.208	0.148	-0.038
-634.580	-67.228	-0.289	-0.115
-633.565	30.042	-0.182	-0.157
-632.551	800.000	-0.037	-0.104
-631.536	-108.095	0.214	-0.047
-630.522	298.502	-0.159	-0.295
-629.507	-54.392	-0.268	0.123
-628.492	-46.502	0.072	-0.036
-627.478	-139.943	-0.029	-0.003
-626.463	-135.330	-0.134	0.016
-625.449	1.181	0.035	-0.025
-624.434	-60.478	-0.197	-0.085
-623.419	638.275	-0.128	-0.327
-622.405	-161.868	0.167	0.009
-621.390	24.345	0.274	0.229
-620.376	-94.631	0.201	-0.055
-619.361	-17.953	0.387	-0.245
-618.346	800.000	-0.084	-0.279
-617.332	800.000	-0.016	0.061
-616.317	-81.323	0.239	0.080
-615.303	523.861	-0.105	-0.250
-614.288	-115.847	-0.263	-0.050
-613.273	-25.196	-0.229	0.137
-612.259	7.506	-0.270	0.204
-611.244	49.121	0.117	-0.111
-610.230	128.596	-0.104	0.134
-609.215	19.393	0.141	-0.114
-608.201	40.498	-0.261	0.237
-607.186	-200.000	0.018	0.193
-606.171	-79.221	-0.119	-0.041
-605.157	37.702	-0.029	0.026
-604.142	563.951	-0.047	0.115
-603.128	641.436	0.137	-0.352
-602.113	144.065	0.125	0.169
-601.098	-79.405	-0.025	-0.008
-600.084	-200.000	-0.001	-0.143
-599.069	800.000	0.043	0.139
-598.055	309.709	0.190	-0.359
-597.040	800.000	-0.027	0.093
-596.025	64.813	-0.117	-0.119
-595.011	-88.754	-0.310	-0.093
-593.996	168.038	0.141	-0.202
-592.982	800.000	0.057	-0.226
-591.967	-166.808	0.219	0.009
-590.952	-200.000	-0.030	0.135
-589.938	16.332	0.390	-0.311
-588.923	490.445	0.150	-0.346
-587.909	188.409	-0.171	-0.257
-586.894	-36.587	0.239	-0.130
-585.879	186.818	0.011	0.017
-584.865	-21.628	0.079	0.049
-583.850	558.054	-0.132	0.321
-582.836	-200.000	-0.033	0.277
-581.821	800.000	-0.056	0.185
-580.806	-165.152	0.160	0.007
-579.792	-200.000	-0.026	-0.204
-578.777	-109.749	0.110	-0.023
-577.763	-67.166	-0.341	-0.136
-576.748	-12.236	0.132	-0.087
-575.733	800.000	0.047	-0.160
-574.719	483.381	-0.093	-0.213
-573.704	193.578	0.111	0.169
-572.690	-40.501	-0.333	0.174
-571.675	-92.592	-0.550	-0.155
-570.661	-96.591	-0.109	-0.029
-569.646	114.492	0.100	0.123
-568.631	-56.792	-0.267	-0.119
-567.617	136.567	-0.187	0.246
-566.602	-128.161	0.182	-0.026
-565.588	323.026	0.103	-0.198
-564.573	-78.767	0.168	-0.058
-563.558	800.000	-0.062	0.189
-562.544	-200.000	0.083	0.429
-561.529	800.000	-0.103	0.349
-560.515	-200.000	0.005	0.130
-559.500	-200.000	-0.048	-0.227
-558.485	-200.000	-0.003	0.229
-557.471	800.000	-0.126	0.373
-556.456	-200.000	-0.027	0.174
-555.442	-50.311	-0.296	0.141
-554.427	800.000	-0.077	0.298
-553.412	-200.000	-0.035	-0.157
-552.398	-77.542	-0.198	0.069
-551.383	-55.148	-0.068	-0.031
-550.369	173.489	-0.069	-0.100
-549.354	710.582	-0.046	0.121
-548.339	-165.388	-0.263	-0.012
-547.325	-200.000	0.024	0.207
-546.310	800.000	-0.085	-0.286
-545.296	800.000	0.103	-0.364
-544.281	-24.363	-0.128	0.077
-543.266	-200.000	-0.036	0.358
-542.252	-3.158	-0.347	-0.244
-541.237	-200.000	-0.045	0.249
-540.223	800.000	-0.102	0.409
-539.208	-93.395	0.304	-0.085
-538.193	197.647	-0.052	-0.080
-537.179	-96.893	-0.294	0.078
-536.164	-157.541	0.153	0.009
-535.150	-51.365	0.277	0.130
-534.135	745.471	0.110	0.299
-533.121	420.239	-0.015	0.032
-532.106	-17.433	-0.296	0.187
-531.091	-104.562	0.285	-0.066
-530.077	-200.000	-0.010	0.281
-529.062	34.626	-0.187	0.164
-528.048	-137.223	0.390	0.045
-527.033	131.160	0.132	0.170
-526.018	800.000	-0.011	0.047
-525.004	418.621	0.098	0.210
-523.989	8.431	-0.233	0.176
-522.975	510.495	-0.083	-0.195
-521.960	35.436	0.203	-0.180
-520.945	-200.000	0.080	-0.000
-519.931	-17.862	-0.189	0.120
-518.916	-128.395	-0.239	0.034
-517.902	-41.475	-0.269	-0.139
-516.887	19.170	0.074	0.060
-515.872	-91.256	-0.469	-0.135
-514.858	-200.000	0.008	0.165
-513.843	-147.968	-0.225	0.019
-512.829	-96.753	0.282	0.074
-511.814	55.215	0.073	-0.071
-510.799	-25.621	-0.202	0.120
-509.785	-116.263	0.247	-0.046
-508.770	116.123	-0.077	-0.094
-507.756	-125.122	-0.121	0.019
-506.741	-101.048	-0.287	0.071
-505.726	57.471	0.366	-0.359
-504.712	204.280	0.086	-0.134
-503.697	126.677	0.106	-0.135
-502.683	-200.000	0.001	0.341
-501.668	-17.926	-0.131	-0.083
-500.653	132.545	-0.121	0.157
-499.639	-137.265	-0.014	0.002
-498.624	-73.586	-0.104	-0.038
-497.610	-45.686	-0.216	-0.107
-496.595	-130.114	0.252	-0.035
-495.581	800.000	-0.039	0.127
-494.566	293.026	-0.096	-0.176
-493.551	476.720	0.120	-0.271
-492.537	-200.000	-0.013	-0.063
-491.522	800.000	-0.057	0.237
-490.508	-130.802	-0.057	0.008
-489.493	117.456	0.160	-0.197
-488.478	-47.076	-0.347	-0.170
-487.464	-73.413	0.161	0.059
-486.449	36.335	-0.109	-0.096
-485.435	64.076	-0.202	-0.204
-484.420	655.102	0.076	-0.195
-483.405	-200.000	-0.040	-0.251
-482.391	33.586	-0.142	-0.124
-481.376	108.498	-0.162	0.194
-480.362	394.583	-0.047	0.099
-479.347	316.473	0.088	0.168
-478.332	-115.946	0.078	0.015
-477.318	57.336	0.089	-0.087
-476.303	11.625	0.282	-0.217
-475.289	231.736	-0.249	-0.410
-474.274	633.879	-0.070	0.178
-473.259	-200.000	-0.022	-0.102
-472.245	367.432	0.074	0.150
-471.230	-77.801	0.155	0.054
-470.216	5.433	-0.336	-0.249
-469.201	365.834	-0.077	0.156
-468.186	-200.000	0.009	-0.137
-467.172	-200.000	-0.024	0.124
-466.157	112.476	-0.136	0.165
-465.143	46.272	-0.180	0.168
-464.128	-107.637	-0.155	0.034
-463.113	7.124	0.145	0.109
-462.099	740.181	-0.066	-0.179
-461.084	28.928	0.093	-0.079
-460.070	5.485	-0.031	0.023
-459.055	-90.866	-0.381	0.110
-458.040	253.763	-0.153	-0.262
-457.026	-200.000	-0.055	0.370
-456.011	134.456	0.174	0.226
-454.997	221.248	0.048	-0.078
-453.982	-126.057	0.111	-0.017
-452.968	94.660	0.142	-0.162
-451.953	-97.550	0.528	0.138
-450.938	-27.803	-0.188	-0.109
-449.924	226.607	0.037	-0.060
-448.909	800.000	0.078	0.235
-447.895	-200.000	0.046	-0.418
-446.880	44.536	-0.221	-0.204
-445.865	-87.524	-0.017	0.005
-444.851	155.646	-0.081	-0.111
-443.836	-135.525	0.518	0.062
-442.822	271.455	-0.058	0.102
-441.807	-13.420	0.137	0.089
-440.792	-56.458	0.107	-0.048
-439.778	-84.408	0.270	-0.086
-438.763	-181.053	0.148	0.003
-437.749	-64.758	0.059	-0.024
-436.734	-200.000	-0.002	0.070
-435.719	338.448	0.220	-0.429
-434.705	792.520	-0.033	0.091
-433.690	49.623	0.191	0.180
-432.676	800.000	0.088	0.325
-431.661	-97.769	0.019	-0.005
-430.646	90.018	0.133	-0.149
-429.632	80.384	-0.153	-0.165
-428.617	107.131	-0.255	-0.303
-427.603	526.106	-0.056	0.132
-426.588	542.503	-0.042	0.100
-425.573	-121.549	-0.069	0.011
-424.559	800.000	0.049	0.209
-423.544	-72.855	0.210	0.078
-422.530	-51.692	-0.196	0.091
-421.515	363.912	-0.119	0.240
-420.500	-161.748	0.154	-0.008
-419.486	-200.000	0.063	0.279
-418.471	-40.230	0.261	0.136
-417.457	256.884	0.103	0.177
-416.442	-200.000	-0.016	-0.293
-415.428	-69.210	0.159	0.061
-414.413	86.356	0.052	0.057
-413.398	89.708	0.172	-0.192
-412.384	137.568	-0.209	-0.274
-411.369	-200.000	0.018	0.125
-410.355	-130.157	0.149	-0.020
-409.340	127.296	-0.081	-0.103
-408.325	-146.768	0.395	0.034
-407.311	320.686	-0.154	-0.293
-406.296	44.059	-0.287	0.264
-405.282	532.771	-0.111	0.263
-404.267	287.424	0.077	-0.140
-403.252	-64.519	0.361	-0.147
-402.238	-96.493	0.417	0.110
-401.223	-4.999	-0.277	0.191
-400.209	-152.891	-0.310	0.022
-399.194	101.634	0.303	-0.353
-398.179	800.000	0.071	0.214
-397.165	800.000	0.051	-0.150
-396.150	-200.000	-0.006	-0.176
-395.136	95.651	0.294	-0.336
-394.121	-45.281	0.278	0.138
-393.106	-86.019	0.382	-0.118
-392.092	800.000	0.027	-0.083
-391.077	-200.000	-0.006	0.238
-390.063	117.482	-0.205	-0.253
-389.048	-21.429	0.133	-0.081
-388.033	86.590	-0.089	0.098
-387.019	-140.938	-0.047	0.005
-386.004	-81.887	0.507	0.166
-384.990	-27.084	0.067	-0.039
-383.975	144.346	-0.168	0.224
-382.960	-200.000	0.002	-0.299
-381.946	800.000	0.066	0.225
-380.931	-200.000	0.042	-0.272
-379.917	75.070	-0.264	-0.278
-378.902	424.638	0.131	0.283
-377.888	-171.545	-0.139	0.005
-376.873	34.967	0.172	0.150
-375.858	-116.298	0.196	-0.036
-374.844	-200.000	0.007	0.218
-373.829	800.000	-0.042	-0.173
-372.815	199.636	-0.063	-0.097
-371.800	-29.003	-0.345	-0.198
-370.785	-72.339	-0.121	-0.045
-369.771	-200.000	0.011	0.219
-368.756	-77.833	0.169	0.058
-367.742	35.732	-0.127	-0.112
-366.727	59.946	-0.295	0.291
-365.712	-200.000	0.010	0.050
-364.698	507.038	-0.134	0.311
-363.683	12.120	0.183	0.141
-362.669	800.000	0.115	0.343
-361.654	-106.303	-0.170	0.038
-360.639	606.774	0.110	0.274
-359.625	43.107	0.020	-0.018
-358.610	-91.231	0.377	-0.108
-357.596	363.683	-0.185	0.372
-356.581	800.000	-0.029	-0.099
-355.566	-16.274	0.092	0.058
-354.552	456.404	0.030	0.066
-353.537	-139.933	0.371	-0.039
-352.523	680.396	0.049	0.128
-351.508	67.172	0.129	-0.132
-350.493	-63.590	-0.379	0.156
-349.479	-14.092	-0.101	-0.065
-348.464	-81.283	0.129	-0.042
-347.450	-102.274	-0.213	0.051
-346.435	3.964	-0.294	0.215
-345.420	-200.000	-0.058	0.413
-344.406	800.000	-0.027	0.113
-343.391	62.990	-0.074	-0.074
-342.377	-6.433	0.123	0.084
-341.362	87.964	0.008	-0.009
-340.348	-131.194	0.116	-0.015
-339.333	800.000	-0.072	0.277
-338.318	103.638	-0.062	-0.073
-337.304	-83.611	-0.178	-0.057
-336.289	-100.204	0.123	0.031
-335.275	68.198	0.107	0.109
-334.260	161.834	-0.221	-0.308
-333.245	-49.437	0.349	0.166
-332.231	-109.284	-0.356	-0.075
-331.216	6.623	0.075	-0.056
-330.202	119.122	0.057	0.070
-329.187	800.000	-0.067	0.243
-328.172	-107.774	0.119	0.026
-327.158	-69.592	-0.176	0.067
-326.143	-200.000	0.006	-0.130
-325.129	800.000	0.164	-0.456
-324.114	637.622	-0.090	0.228
-323.099	-200.000	0.020	0.166
-322.085	122.948	-0.428	-0.534
-321.070	40.062	-0.181	-0.162
-320.056	148.424	0.124	0.168
-319.041	35.062	-0.316	-0.276
-318.026	439.276	-0.120	-0.262
-317.012	-200.000	0.031	-0.198
-315.997	-13.236	-0.167	0.108
-314.983	-145.426	-0.132	-0.012
-313.968	-77.838	-0.332	0.114
-312.953	-169.634	0.140	-0.005
-311.939	135.651	0.073	0.095
-310.924	-127.722	-0.133	0.019
-309.910	36.574	0.190	0.167
-308.895	-200.000	-0.005	-0.237
-307.880	-7.928	-0.295	-0.198
-306.866	2.259	0.184	-0.133
-305.851	-51.793	-0.124	-0.057
-304.837	-200.000	0.064	0.313
-303.822	-200.000	0.049	-0.551
-302.807	426.519	-0.021	0.044
-301.793	-20.780	-0.115	0.070
-300.778	-47.318	-0.152	-0.074
-299.764	-2.950	-0.123	0.085
-298.749	-104.166	0.370	-0.086
-297.735	-200.000	-0.029	0.146
-296.720	49.797	0.339	-0.319
-295.705	21.034	0.108	0.087
-294.691	-87.046	0.223	-0.068
-293.676	-200.000	-0.024	0.135
-292.662	-13.221	0.296	0.192
-291.647	-200.000	0.025	-0.601
-290.632	-200.000	0.025	-0.444
-289.618	-0.503	-0.236	-0.167
-288.603	-39.832	0.253	0.132
-287.589	-200.000	-0.074	0.535
-286.574	-97.124	-0.197	0.051
-285.559	-43.343	-0.218	0.110
-284.545	-200.000	-0.040	0.317
-283.530	40.213	-0.070	-0.063
-282.516	-200.000	-0.038	-0.183
-281.501	-200.000	0.006	-0.114
-280.486	-105.624	-0.087	0.020
-279.472	-65.656	-0.370	0.148
-278.457	-133.358	0.102	-0.013
-277.443	87.857	0.089	-0.098
-276.428	-196.937	0.046	-0.000
-275.413	710.950	0.095	-0.251
-274.399	125.710	0.203	0.255
-273.384	800.000	-0.053	-0.168
-272.370	-134.750	0.250	0.030
-271.355	800.000	-0.099	0.283
-270.340	519.256	0.121	0.282
-269.326	416.817	0.093	0.197
-268.311	355.332	-0.126	-0.250
-267.297	-50.920	-0.232	0.108
-266.282	496.043	0.025	-0.057
-265.267	-12.010	-0.179	0.117
-264.253	461.280	0.140	0.311
-263.238	-82.957	-0.102	0.033
-262.224	144.350	-0.140	0.186
-261.209	22.933	-0.033	0.027
-260.195	-138.981	0.258	-0.028
-259.180	-108.194	0.103	-0.022
-258.165	645.930	0.079	-0.201
-257.151	44.475	-0.141	0.128
-256.136	800.000	-0.036	-0.152
-255.122	367.423	0.082	0.165
-254.107	-54.164	-0.304	-0.137
-253.092	256.615	-0.151	-0.258
-252.078	70.014	0.050	0.051
-251.063	-60.341	0.193	-0.082
-250.049	-63.727	-0.178	0.073
-249.034	-109.783	0.335	0.070
-248.019	13.001	0.249	0.192
-247.005	165.579	-0.129	-0.182
-245.990	-177.721	0.192	-0.005
-244.976	15.892	0.100	0.078
-243.961	-200.000	-0.005	-0.195
-242.946	195.363	-0.044	-0.066
-241.932	-62.735	0.110	-0.045
-240.917	800.000	-0.054	-0.197
-239.903	800.000	-0.041	0.115
-238.888	105.089	-0.132	-0.155
-237.873	-165.896	-0.310	-0.013
-236.859	-200.000	-0.027	-0.127
-235.844	-47.260	0.071	-0.034
-234.830	-59.719	-0.236	0.100
-233.815	486.152	-0.074	0.168
-232.800	-148.010	-0.303	-0.025
-231.786	-50.386	-0.330	-0.155
-230.771	800.000	-0.076	-0.288
-229.757	-200.000	0.052	0.266
-228.742	-200.000	-0.075	0.543
-227.727	285.259	0.107	-0.191
-226.713	-114.419	-0.167	-0.032
-225.698	111.239	0.048	-0.058
-224.684	-22.047	0.188	-0.114
-223.669	20.012	-0.107	0.086
-222.655	42.951	0.222	0.201
-221.640	-4.521	0.122	-0.084
-220.625	28.413	0.320	0.269
-219.611	257.836	-0.054	-0.092
-218.596	800.000	0.112	-0.363
-217.582	-0.675	-0.190	0.134
-216.567	-44.447	0.101	0.050
-215.552	-63.814	-0.273	-0.111
-214.538	-58.965	0.485	-0.208
-213.523	-55.038	0.269	0.120
-212.509	-108.186	-0.181	0.039
-211.494	-177.243	-0.138	0.003
-210.479	800.000	-0.123	0.399
-209.465	-200.000	0.009	-0.149
-208.450	-92.281	-0.165	-0.046
-207.436	237.380	0.103	-0.170
-206.421	-80.703	0.160	-0.053
-205.406	12.963	-0.053	-0.040
-204.392	95.362	-0.123	-0.139
-203.377	153.053	0.042	0.057
-202.363	-113.711	0.274	-0.053
-201.348	275.534	-0.153	0.269
-200.333	800.000	0.043	0.170
-199.319	-8.558	0.154	0.103
-198.304	-124.688	0.200	-0.031
-197.290	-147.232	-0.190	0.016
-196.275	45.752	-0.157	-0.144
-195.260	-62.507	0.384	0.158
-194.246	-200.000	-0.056	0.246
-193.231	618.824	-0.092	-0.230
-192.217	-98.357	0.395	0.100
-191.202	465.366	-0.107	0.238
-190.187	800.000	0.061	-0.234
-189.173	9.813	0.242	0.182
-188.158	800.000	-0.109	-0.432
-187.144	90.322	0.253	-0.281
-186.129	-133.479	0.480	-0.060
-185.114	-8.823	-0.126	0.084
-184.100	658.869	0.064	0.164
-183.085	-56.631	0.184	-0.081
-182.071	35.169	-0.230	0.200
-181.056	-66.120	0.401	0.159
-180.042	-200.000	-0.021	-0.173
-179.027	-200.000	0.012	0.198
-178.012	-95.870	0.242	0.064
-176.998	439.960	-0.187	-0.404
-175.983	800.000	-0.017	-0.052
-174.969	-75.798	-0.342	-0.120
-173.954	-20.461	0.346	0.211
-172.939	-136.035	0.073	0.008
-171.925	-157.812	0.181	-0.011
-170.910	-21.663	0.346	-0.209
-169.896	121.319	-0.064	-0.079
-168.881	800.000	-0.119	0.496
-167.866	-137.077	0.188	0.021
-166.852	-200.000	-0.033	0.307
-165.837	92.495	0.004	0.004
-164.823	85.290	0.108	-0.117
-163.808	-200.000	0.017	-0.190
-162.793	140.786	0.083	0.109
-161.779	-200.000	0.001	0.118
-160.764	-200.000	-0.048	-0.342
-159.750	-147.658	0.199	0.017
-158.735	30.518	-0.127	-0.108
-157.720	72.250	-0.046	-0.047
-156.706	-200.000	0.021	-0.196
-155.691	-134.543	0.148	0.018
-154.677	-138.440	0.065	-0.007
-153.662	-137.242	0.317	-0.036
-152.647	-200.000	-0.005	0.239
-151.633	-200.000	-0.014	0.103
-150.618	639.846	0.234	0.590
-149.604	-52.565	-0.283	-0.130
-148.589	313.941	0.151	0.281
-147.574	-185.305	-0.305	0.005
-146.560	-200.000	-0.022	0.139
-145.545	536.615	-0.146	-0.344
-144.531	44.771	0.050	0.046
-143.516	800.000	0.024	-0.100
-142.502	39.620	-0.053	-0.047
-141.487	83.391	0.165	-0.178
-140.472	-64.971	0.092	0.037
-139.458	283.598	-0.075	0.133
-138.443	229.056	-0.096	0.156
-137.429	-140.257	0.190	0.020
-136.414	254.507	-0.093	-0.157
-135.399	-160.721	-0.312	0.016
-134.385	23.407	0.048	0.039
-133.370	-53.904	-0.309	-0.140
-132.356	800.000	0.038	-0.141
-131.341	-200.000	-0.002	0.174
-130.326	-200.000	-0.028	-0.173
-129.312	150.794	0.171	0.230
-128.297	-35.904	-0.267	0.143
-127.283	-122.077	-0.256	0.042
-126.268	-200.000	-0.037	-0.160
-125.253	32.297	0.244	-0.209
-124.239	-96.960	0.097	0.025
-123.224	-200.000	-0.035	-0.315
-122.210	116.281	-0.019	-0.024
-121.195	-76.272	0.107	0.037
