DTS Sentinel unit serial number:	SN413079Multiplexer serial number:	ORYXHardware model number:	OX4-SRSoftware version number:	ORYX F/W v4.00 Oryx Data Collector v3.7.2.0data status	okinstallation	princeton_trtdifferential loss correction	single-endedforward channel	channel 1reverse channel	N/Adate	2019/09/15time	19:10:35forward acquisition time	60.00reverse acquisition time	0.00gamma	496.2192k internal	0.2294k external	0.2294temperature offset calibration	0.9952default loss term (dB/km)	0.3790temperature slope calibration	1.0000multiplexer offset coefficient	1.0000multiplexer slope coefficient	1.0000fibre end	0.00T internal ref (°C)	41.00T ext. ref 1 (°C)	7.11T ext. ref 2 (°C)	30.30length (m)	temperature (°C)	Stokes	anti-Stokes-747.200	800.000	0.032	-0.124
-746.185	-81.917	-0.037	-0.012
-745.171	-84.032	0.391	0.127
-744.156	-200.000	-0.041	0.396
-743.142	122.458	0.173	0.222
-742.127	308.176	-0.085	0.162
-741.112	-4.466	-0.197	0.139
-740.098	229.248	-0.275	0.458
-739.083	52.848	0.139	-0.136
-738.069	-151.202	-0.489	0.037
-737.054	-200.000	-0.003	0.059
-736.039	-113.301	-0.287	-0.058
-735.025	-26.996	0.247	0.147
-734.010	-48.404	0.329	-0.162
-732.996	-57.963	-0.305	0.136
-731.981	115.751	-0.114	-0.142
-730.966	-18.520	0.212	0.135
-729.952	800.000	-0.035	-0.102
-728.937	-53.450	-0.368	-0.172
-727.923	-46.310	0.134	-0.067
-726.908	525.563	0.038	0.092
-725.894	36.279	0.033	0.029
-724.879	574.081	0.109	-0.272
-723.864	-87.627	0.182	-0.056
-722.850	66.246	-0.144	-0.149
-721.835	-130.587	-0.329	-0.045
-720.821	-200.000	0.007	-0.060
-719.806	-178.122	0.185	-0.004
-718.791	-200.000	0.018	-0.174
-717.777	-105.749	0.474	-0.109
-716.762	-53.538	0.200	-0.094
-715.748	-31.723	0.178	-0.102
-714.733	800.000	-0.102	0.302
-713.718	486.260	0.066	0.154
-712.704	-12.109	0.165	-0.111
-711.689	-64.997	-0.328	-0.135
-710.675	318.202	-0.197	-0.381
-709.660	-110.808	-0.227	0.048
-708.645	-115.511	-0.249	-0.048
-707.631	800.000	-0.090	0.354
-706.616	-126.775	-0.075	-0.011
-705.602	-190.084	0.286	0.003
-704.587	-38.727	0.055	-0.030
-703.572	-37.931	0.309	-0.168
-702.558	-200.000	-0.001	-0.176
-701.543	-57.640	0.070	0.031
-700.529	207.732	-0.020	-0.032
-699.514	-200.000	0.007	-0.156
-698.499	331.230	0.053	-0.105
-697.485	-174.406	-0.228	-0.007
-696.470	-111.037	-0.276	-0.058
-695.456	-27.978	0.233	-0.138
-694.441	-143.242	0.344	0.034
-693.426	182.083	0.059	-0.089
-692.412	8.771	0.212	-0.163
-691.397	123.000	-0.077	0.098
-690.383	800.000	-0.043	0.184
-689.368	-126.740	-0.269	-0.041
-688.354	245.766	0.139	0.239
-687.339	599.204	0.079	-0.199
-686.324	-10.396	-0.023	-0.016
-685.310	-82.753	0.113	-0.037
-684.295	412.567	-0.190	-0.412
-683.281	-200.000	-0.004	0.061
-682.266	346.622	-0.042	-0.084
-681.251	8.842	-0.274	0.211
-680.237	669.842	0.045	0.119
-679.222	-84.270	-0.292	0.094
-678.208	-80.673	-0.248	-0.084
-677.193	40.650	0.108	-0.099
-676.178	76.193	-0.270	0.291
-675.164	342.983	0.031	0.061
-674.149	-22.203	-0.362	-0.224
-673.135	-61.189	0.077	-0.033
-672.120	192.426	0.041	0.063
-671.105	-200.000	0.026	-0.390
-670.091	-18.615	-0.287	0.183
-669.076	-130.192	-0.557	0.077
-668.062	23.930	-0.099	-0.084
-667.047	-200.000	-0.044	-0.316
-666.032	212.122	0.157	-0.252
-665.018	-68.443	0.354	-0.140
-664.003	124.653	-0.180	-0.231
-662.989	216.734	0.093	-0.151
-661.974	-113.317	-0.150	-0.030
-660.959	800.000	0.076	-0.255
-659.945	800.000	0.050	0.140
-658.930	-200.000	0.016	-0.185
-657.916	-151.225	0.275	0.021
-656.901	-85.886	-0.148	-0.047
-655.886	317.262	-0.116	-0.223
-654.872	-130.862	-0.224	0.031
-653.857	800.000	-0.066	0.195
-652.843	-77.973	-0.324	0.114
-651.828	-111.387	0.096	-0.020
-650.814	215.992	0.034	0.055
-649.799	98.234	-0.155	0.182
-648.784	-17.837	0.193	0.123
-647.770	2.957	0.111	0.082
-646.755	-179.325	0.158	0.004
-645.741	545.994	-0.032	0.077
-644.726	-200.000	-0.001	-0.205
-643.711	-200.000	0.008	0.051
-642.697	-73.743	-0.326	0.121
-641.682	182.017	0.163	0.245
-640.668	-200.000	-0.014	0.391
-639.653	-43.388	0.145	0.074
-638.638	223.738	-0.133	0.219
-637.624	2.925	-0.213	0.158
-636.609	-48.049	-0.405	0.199
-635.595	-200.000	-0.035	0.199
-634.580	251.445	0.056	-0.097
-633.565	800.000	0.034	0.111
-632.551	-82.377	0.374	-0.124
-631.536	-65.567	0.238	0.097
-630.522	95.271	0.093	0.108
-629.507	33.462	-0.134	0.118
-628.492	69.343	-0.168	0.176
-627.478	-184.856	-0.191	-0.003
-626.463	340.222	0.092	0.184
-625.449	240.808	-0.017	0.029
-624.434	-200.000	-0.038	-0.213
-623.419	-96.624	0.076	0.020
-622.405	220.080	0.139	0.227
-621.390	15.083	0.189	0.151
-620.376	160.904	0.110	-0.156
-619.361	9.540	-0.109	0.084
-618.346	-36.053	-0.160	0.088
-617.332	-26.923	0.066	0.039
-616.317	800.000	-0.007	-0.026
-615.303	-200.000	0.021	-0.130
-614.288	-200.000	-0.047	-0.251
-613.273	23.737	0.271	-0.227
-612.259	-200.000	-0.018	0.175
-611.244	-170.042	0.122	-0.004
-610.230	37.838	-0.180	0.163
-609.215	800.000	-0.011	-0.033
-608.201	-89.596	0.109	0.033
-607.186	-43.030	-0.206	0.106
-606.171	-200.000	-0.008	-0.330
-605.157	257.546	-0.123	-0.216
-604.142	-101.265	0.084	-0.021
-603.128	-108.601	-0.173	-0.038
-602.113	6.038	-0.317	-0.239
-601.098	-176.896	0.273	0.007
-600.084	800.000	0.059	-0.182
-599.069	154.745	-0.104	-0.145
-598.055	-200.000	0.018	-0.177
-597.040	479.983	-0.070	0.162
-596.025	-52.894	-0.160	0.075
-595.011	-196.872	0.195	-0.001
-593.996	173.422	-0.114	-0.167
-592.982	112.169	0.141	-0.173
-591.967	-98.880	0.029	-0.007
-590.952	91.394	-0.213	0.243
-589.938	-200.000	0.009	-0.053
-588.923	122.354	0.205	-0.260
-587.909	255.957	-0.142	0.247
-586.894	-200.000	0.026	0.253
-585.879	-64.177	0.374	0.155
-584.865	457.646	-0.035	-0.079
-583.850	56.372	-0.221	-0.218
-582.836	269.323	0.160	0.285
-581.821	800.000	-0.023	-0.074
-580.806	-73.900	0.416	-0.154
-579.792	-147.652	-0.097	0.008
-578.777	-63.170	-0.183	0.077
-577.763	-200.000	-0.054	-0.396
-576.748	27.691	-0.242	0.207
-575.733	0.910	-0.164	0.119
-574.719	-119.306	0.172	0.030
-573.704	37.752	0.038	0.034
-572.690	-200.000	0.015	-0.115
-571.675	-200.000	0.004	-0.297
-570.661	800.000	-0.096	0.286
-569.646	-107.177	0.454	-0.102
-568.631	-148.059	-0.154	0.013
-567.617	-200.000	-0.035	-0.189
-566.602	-86.790	-0.182	-0.056
-565.588	531.858	0.059	0.142
-564.573	-44.574	-0.109	0.055
-563.558	-19.391	-0.160	0.101
-562.544	741.761	0.094	0.257
-561.529	-98.507	-0.178	-0.046
-560.515	-35.415	-0.287	-0.159
-559.500	-200.000	0.032	-0.143
-558.485	-70.278	-0.128	-0.049
-557.471	-200.000	0.061	0.565
-556.456	-107.078	0.386	0.087
-555.442	400.130	-0.187	0.397
-554.427	274.959	0.092	-0.165
-553.412	-200.000	0.030	0.235
-552.398	-200.000	-0.025	0.176
-551.383	-91.331	-0.190	-0.055
-550.369	125.365	-0.199	-0.255
-549.354	156.478	-0.202	0.283
-548.339	-103.371	-0.139	0.033
-547.325	105.651	0.126	0.151
-546.310	-200.000	0.010	0.193
-545.296	-113.878	-0.202	-0.040
-544.281	800.000	0.034	-0.112
-543.266	734.661	-0.073	0.200
-542.252	-200.000	0.020	-0.126
-541.237	185.548	0.148	-0.222
-540.223	-200.000	0.004	-0.036
-539.208	-129.123	-0.464	0.066
-538.193	399.440	0.086	-0.182
-537.179	-39.956	0.239	-0.127
-536.164	800.000	-0.100	-0.333
-535.150	-9.519	-0.172	-0.116
-534.135	167.169	0.028	-0.040
-533.121	-200.000	-0.030	0.233
-532.106	-93.130	-0.259	0.073
-531.091	-74.691	-0.117	-0.043
-530.077	200.906	-0.187	-0.292
-529.062	-96.194	0.310	0.083
-528.048	-130.238	-0.289	0.040
-527.033	50.395	0.185	-0.178
-526.018	-104.667	0.472	0.110
-525.004	747.223	-0.019	-0.052
-523.989	-155.413	0.059	0.004
-522.975	335.667	-0.112	-0.220
-521.960	36.491	0.195	0.174
-520.945	137.660	0.076	0.101
-519.931	-130.301	-0.213	0.029
-518.916	-73.044	-0.126	0.047
-517.902	800.000	0.115	-0.347
-516.887	800.000	-0.028	-0.086
-515.872	188.363	0.046	0.070
-514.858	-25.109	-0.111	-0.067
-513.843	800.000	0.050	-0.163
-512.829	39.925	-0.229	0.208
-511.814	-184.098	-0.205	0.003
-510.799	45.571	-0.165	-0.155
-509.785	99.312	-0.145	-0.170
-508.770	36.310	0.190	0.170
-507.756	300.095	0.138	0.257
-506.741	-200.000	-0.001	0.392
-505.726	76.763	0.062	-0.066
-504.712	248.209	0.139	0.238
-503.697	-41.471	0.136	-0.071
-502.683	800.000	-0.065	-0.197
-501.668	-122.714	0.148	0.024
-500.653	-134.419	-0.206	-0.026
-499.639	-127.137	-0.143	-0.021
-498.624	70.999	0.145	-0.152
-497.610	-19.665	0.239	-0.150
-496.595	-106.598	0.124	-0.028
-495.581	64.719	0.083	-0.085
-494.566	328.587	-0.110	-0.214
-493.551	-200.000	0.003	0.035
-492.537	800.000	0.040	-0.157
-491.522	62.704	0.191	-0.193
-490.508	27.268	-0.077	0.065
-489.493	303.261	-0.167	0.313
-488.478	-111.838	0.264	-0.054
-487.464	159.338	0.140	-0.197
-486.449	174.156	-0.024	0.035
-485.435	-200.000	-0.017	0.215
-484.420	26.985	-0.163	-0.138
-483.405	71.769	0.100	-0.105
-482.391	-47.409	-0.137	-0.067
-481.376	-200.000	-0.009	0.169
-480.362	-51.833	0.125	-0.059
-479.347	399.315	-0.095	-0.202
-478.332	-179.549	0.263	-0.006
-477.318	-200.000	-0.027	-0.227
-476.303	576.074	-0.048	-0.119
-475.289	-200.000	0.020	-0.137
-474.274	53.854	0.111	-0.108
-473.259	30.592	-0.205	0.177
-472.245	216.290	-0.204	0.328
-471.230	-40.674	-0.180	-0.094
-470.216	158.097	0.181	-0.254
-469.201	59.710	0.164	-0.164
-468.186	-99.259	0.197	0.050
-467.172	187.612	-0.191	0.288
-466.157	233.655	0.150	0.250
-465.143	17.665	-0.018	0.014
-464.128	-115.960	0.465	0.088
-463.113	13.029	0.049	-0.038
-462.099	-200.000	0.000	-0.180
-461.084	373.534	0.164	-0.338
-460.070	20.725	0.206	0.168
-459.055	-52.146	-0.345	0.162
-458.040	42.456	-0.047	0.043
-457.026	-22.324	-0.302	0.185
-456.011	322.204	-0.110	0.213
-454.997	192.938	-0.212	0.323
-453.982	293.468	0.031	0.058
-452.968	24.106	0.196	-0.163
-451.953	388.161	-0.015	-0.032
-450.938	-55.427	0.384	-0.174
-449.924	-77.183	0.257	-0.090
-448.909	134.388	0.131	-0.171
-447.895	-94.437	-0.261	0.072
-446.880	-96.112	0.251	-0.067
-445.865	63.871	0.143	-0.145
-444.851	139.187	-0.109	0.144
-443.836	-200.000	0.063	0.421
-442.822	450.841	-0.129	0.287
-441.807	-200.000	-0.026	0.223
-440.792	-200.000	0.025	0.287
-439.778	-200.000	-0.042	-0.397
-438.763	-33.196	-0.189	-0.106
-437.749	299.158	0.122	0.227
-436.734	-113.464	-0.271	-0.054
-435.719	598.176	-0.059	-0.147
-434.705	40.352	-0.270	-0.245
-433.690	-17.260	-0.172	-0.110
-432.676	-43.921	0.338	0.172
-431.661	450.341	0.116	0.258
-430.646	-88.135	-0.273	-0.083
-429.632	800.000	0.061	-0.187
-428.617	308.007	0.123	-0.231
-427.603	-101.159	0.191	-0.047
-426.588	-46.533	-0.244	0.121
-425.573	-115.958	0.297	-0.056
-424.559	431.843	-0.043	0.094
-423.544	483.725	0.073	0.168
-422.530	-65.378	0.125	0.051
-421.515	195.817	0.132	0.202
-420.500	550.535	-0.036	0.087
-419.486	-200.000	-0.002	-0.020
-418.471	-141.243	0.169	-0.017
-417.457	-151.862	-0.052	-0.004
-416.442	800.000	0.107	0.358
-415.428	545.195	0.116	-0.280
-414.413	-168.209	-0.121	-0.005
-413.398	95.583	0.100	-0.115
-412.384	26.524	-0.159	-0.134
-411.369	79.739	0.335	-0.363
-410.355	341.065	-0.076	0.150
-409.340	-200.000	0.008	-0.175
-408.325	-55.866	-0.174	0.079
-407.311	391.059	0.088	0.185
-406.296	800.000	-0.053	-0.179
-405.282	-38.938	0.111	0.059
-404.267	-200.000	-0.034	-0.187
-403.252	-74.228	0.171	0.062
-402.238	-86.134	0.385	0.120
-401.223	-77.182	-0.483	0.170
-400.209	800.000	-0.064	0.208
-399.194	356.158	-0.055	0.111
-398.179	361.188	0.054	0.109
-397.165	7.039	-0.178	-0.134
-396.150	115.705	-0.098	-0.121
-395.136	800.000	0.036	-0.106
-394.121	-90.465	0.302	-0.088
-393.106	-136.471	-0.332	-0.039
-392.092	726.348	0.091	-0.245
-391.077	183.330	0.163	0.244
-390.063	30.193	0.107	-0.092
-389.048	-59.292	-0.278	0.121
-388.033	-200.000	0.013	0.217
-387.019	-0.336	-0.107	0.077
-386.004	-77.508	-0.211	-0.074
-384.990	-67.962	0.378	-0.149
-383.975	777.214	-0.166	-0.458
-382.960	-200.000	0.051	-0.305
-381.946	19.197	-0.046	-0.038
-380.931	343.123	0.068	0.134
-379.917	800.000	-0.033	-0.095
-378.902	-131.452	0.036	-0.005
-377.888	205.694	0.085	0.133
-376.873	-149.085	0.187	0.015
-375.858	738.701	0.089	-0.240
-374.844	34.972	-0.285	-0.251
-373.829	100.631	0.141	-0.165
-372.815	-24.813	0.438	-0.262
-371.800	-117.080	-0.392	0.072
-370.785	-200.000	-0.042	0.268
-369.771	-50.445	0.181	0.086
-368.756	-98.309	0.348	-0.090
-367.742	-200.000	0.103	-0.456
-366.727	54.404	0.261	-0.254
-365.712	229.949	-0.075	-0.124
-364.698	-43.331	-0.222	0.113
-363.683	60.329	0.091	-0.091
-362.669	800.000	0.076	0.222
-361.654	-138.690	-0.259	-0.028
-360.639	800.000	-0.058	-0.195
-359.625	76.352	-0.034	-0.036
-358.610	-116.261	-0.234	0.044
-357.596	-24.233	-0.116	-0.070
-356.581	-200.000	-0.063	-0.364
-355.566	-70.989	-0.095	-0.036
-354.552	-11.997	0.255	-0.168
-353.537	564.571	0.071	0.173
-352.523	-112.852	-0.225	0.045
-351.508	-87.031	-0.326	-0.100
-350.493	-96.951	0.207	0.055
-349.479	51.379	-0.111	-0.106
-348.464	154.551	-0.101	-0.140
-347.450	14.119	-0.311	0.244
-346.435	-112.511	0.206	-0.041
-345.420	95.157	-0.101	-0.115
-344.406	-91.130	-0.186	0.054
-343.391	517.778	-0.070	0.164
-342.377	163.619	0.156	0.222
-341.362	43.492	-0.096	-0.089
-340.348	-162.363	-0.377	-0.019
-339.333	-84.153	0.063	0.020
-338.318	346.414	0.071	0.140
-337.304	-200.000	0.043	-0.230
-336.289	800.000	-0.055	0.177
-335.275	-143.606	-0.193	0.018
-334.260	-200.000	0.003	0.055
-333.245	14.023	0.213	0.167
-332.231	-73.486	-0.230	0.084
-331.216	-90.318	0.208	0.061
-330.202	-200.000	0.004	0.236
-329.187	-79.193	0.155	0.053
-328.172	285.933	-0.183	-0.331
-327.158	800.000	0.028	-0.116
-326.143	-98.424	0.278	-0.071
-325.129	686.372	-0.031	0.082
-324.114	27.438	-0.070	-0.059
-323.099	198.432	0.119	0.184
-322.085	-32.277	0.235	-0.132
-321.070	-94.182	-0.421	0.116
-320.056	-200.000	-0.030	0.142
-319.041	800.000	0.139	-0.395
-318.026	13.253	0.149	-0.116
-317.012	393.497	0.049	0.103
-315.997	108.240	0.098	-0.118
-314.983	800.000	0.032	0.111
-313.968	-200.000	0.006	0.266
-312.953	5.640	0.225	-0.167
-311.939	-200.000	0.007	0.083
-310.924	216.141	-0.160	-0.256
-309.910	34.823	-0.011	-0.010
-308.895	787.256	0.033	-0.092
-307.880	-200.000	0.019	-0.094
-306.866	800.000	-0.014	-0.046
-305.851	319.316	-0.121	0.231
-304.837	24.967	0.092	-0.077
-303.822	121.109	-0.211	-0.264
-302.807	97.246	0.276	-0.318
-301.793	-200.000	0.013	0.134
-300.778	349.436	0.165	0.328
-299.764	-93.450	-0.474	0.132
-298.749	288.867	0.125	-0.228
-297.735	472.222	-0.113	-0.255
-296.720	-200.000	-0.003	0.123
-295.705	700.641	0.076	0.202
-294.691	37.427	-0.186	-0.166
-293.676	414.732	-0.038	0.081
-292.662	800.000	-0.038	-0.113
-291.647	-14.426	0.093	-0.060
-290.632	52.694	-0.080	-0.077
-289.618	-96.973	-0.053	-0.014
-288.603	-200.000	-0.025	-0.165
-287.589	800.000	-0.045	0.148
-286.574	-90.381	0.318	-0.093
-285.559	49.459	0.312	0.295
-284.545	608.230	-0.089	0.223
-283.530	800.000	0.051	-0.197
-282.516	-71.246	0.284	-0.107
-281.501	72.477	0.240	0.252
-280.486	158.999	0.156	0.217
-279.472	-96.679	-0.299	-0.079
-278.457	65.995	0.176	-0.180
-277.443	-192.108	-0.062	-0.001
-276.428	800.000	-0.049	-0.154
-275.413	800.000	0.062	0.252
-274.399	205.842	0.105	0.164
-273.384	189.578	-0.044	0.066
-272.370	-200.000	-0.012	0.222
-271.355	165.380	-0.185	0.263
-270.340	180.389	0.059	0.086
-269.326	-200.000	-0.028	0.130
-268.311	30.779	0.097	-0.083
-267.297	-200.000	-0.033	-0.206
-266.282	335.460	-0.147	0.287
-265.267	-24.815	0.151	-0.090
-264.253	282.643	0.089	0.160
-263.238	-96.688	-0.043	0.011
-262.224	-129.798	-0.121	0.017
-261.209	-145.960	0.274	-0.024
-260.195	66.446	0.218	-0.222
-259.180	667.460	-0.049	0.126
-258.165	718.213	-0.053	-0.142
-257.151	296.639	0.161	-0.297
-256.136	379.832	-0.098	-0.202
-255.122	-53.901	0.382	-0.174
-254.107	51.560	0.144	-0.137
-253.092	-200.000	0.021	-0.179
-252.078	-200.000	-0.029	-0.270
-251.063	-200.000	0.015	-0.093
-250.049	111.461	0.254	0.307
-249.034	-70.660	-0.114	-0.043
-248.019	508.014	-0.099	0.230
-247.005	-81.240	-0.158	-0.052
-245.990	-200.000	-0.015	-0.102
-244.976	355.545	-0.085	-0.169
-243.961	-152.575	-0.128	-0.009
-242.946	-200.000	0.007	0.121
-241.932	800.000	-0.049	0.187
-240.917	-148.475	-0.244	-0.020
-239.903	-59.594	0.127	0.055
-238.888	199.979	-0.077	-0.118
-237.873	143.337	0.072	-0.096
-236.859	129.646	-0.120	-0.154
-235.844	277.587	-0.172	0.308
-234.830	31.999	-0.207	0.179
-233.815	177.564	0.108	-0.158
-232.800	-178.059	-0.081	0.002
-231.786	-200.000	-0.041	-0.213
-230.771	-99.971	-0.121	0.030
-229.757	-64.563	-0.222	0.091
-228.742	800.000	-0.083	-0.304
-227.727	49.447	0.072	0.067
-226.713	597.703	-0.170	-0.422
-225.698	-69.004	-0.227	0.088
-224.684	-75.204	-0.170	0.061
-223.669	407.933	-0.028	0.060
-222.655	-28.419	-0.112	0.065
-221.640	-67.195	-0.216	0.085
-220.625	-74.285	0.168	-0.061
-219.611	-200.000	-0.016	-0.193
-218.596	69.515	0.386	0.398
-217.582	-94.072	-0.185	-0.051
-216.567	800.000	0.017	-0.053
-215.552	191.889	0.079	-0.119
-214.538	403.472	0.131	0.277
-213.523	-86.220	0.252	-0.078
-212.509	-117.923	0.156	0.028
-211.494	-54.668	0.093	-0.042
-210.479	83.142	-0.132	0.143
-209.465	123.426	0.209	0.262
-208.450	-200.000	-0.007	-0.215
-207.436	15.219	-0.262	-0.206
-206.421	45.863	-0.077	-0.071
-205.406	-111.147	-0.191	0.039
-204.392	800.000	-0.027	0.099
-203.377	800.000	0.034	-0.113
-202.363	526.327	-0.052	-0.124
-201.348	-9.923	0.177	0.118
-200.333	-40.166	0.233	0.122
-199.319	271.404	0.057	0.100
-198.304	800.000	-0.065	-0.186
-197.290	-31.260	-0.160	-0.090
-196.275	505.985	-0.264	0.613
-195.260	-200.000	0.001	0.175
-194.246	139.724	0.074	0.097
-193.231	79.794	0.054	-0.058
-192.217	429.211	0.138	-0.298
-191.202	-136.115	-0.306	0.036
-190.187	639.786	-0.012	0.031
-189.173	139.904	0.017	0.022
-188.158	-144.681	-0.211	0.019
-187.144	603.474	-0.036	-0.091
-186.129	-56.457	0.127	-0.056
-185.114	-200.000	0.019	-0.214
-184.100	-53.535	-0.118	-0.054
-183.085	-100.259	0.117	0.029
-182.071	-74.759	-0.138	0.050
-181.056	5.345	-0.080	-0.059
-180.042	81.430	0.095	0.103
-179.027	166.607	-0.112	-0.159
-178.012	-90.072	0.195	0.057
-176.998	144.845	-0.143	-0.191
-175.983	-200.000	0.032	0.448
-174.969	-30.896	0.284	0.161
-173.954	-100.213	-0.200	0.050
-172.939	103.277	0.149	0.175
-171.925	-200.000	-0.061	-0.277
-170.910	-200.000	-0.104	0.533
-169.896	-99.640	0.333	-0.084
-168.881	-200.000	0.048	0.231
-167.866	198.555	-0.036	-0.054
-166.852	800.000	-0.086	0.309
-165.837	800.000	-0.050	-0.199
-164.823	137.567	0.123	-0.161
-163.808	-100.404	-0.230	-0.057
-162.793	-200.000	0.043	0.188
-161.779	-200.000	0.036	-0.253
-160.764	34.020	0.072	0.062
-159.750	136.569	0.124	-0.161
-158.735	-22.306	0.074	0.045
-157.720	-37.317	-0.120	-0.064
-156.706	-200.000	-0.027	0.289
-155.691	99.282	-0.147	0.170
-154.677	128.657	0.162	0.207
-153.662	-89.695	0.280	-0.082
-152.647	295.073	0.071	-0.131
-151.633	409.903	-0.084	-0.178
-150.618	232.530	0.186	0.306
-149.604	173.428	0.135	-0.195
-148.589	-43.215	-0.116	0.059
-147.574	-95.604	0.112	0.030
-146.560	-78.281	0.098	0.033
-145.545	208.701	0.115	-0.180
-144.531	610.870	-0.056	0.139
-143.516	78.384	0.165	-0.176
-142.502	120.421	0.071	-0.087
-141.487	157.368	0.201	0.277
-140.472	274.609	0.230	-0.408
-139.458	-141.316	-0.163	-0.017
-138.443	220.650	0.193	-0.309
-137.429	793.369	-0.066	0.183
-136.414	-62.686	0.292	-0.121
-135.399	-200.000	-0.013	-0.182
-134.385	41.717	0.254	-0.230
-133.370	-140.357	-0.301	0.031
-132.356	-140.875	-0.392	-0.040
-131.341	102.601	0.194	-0.227
-130.326	-133.138	-0.113	0.014
-129.312	-77.144	-0.139	-0.048
-128.297	800.000	-0.057	0.165
-127.283	4.310	0.410	-0.300
-126.268	-100.985	0.219	-0.054
-125.253	-200.000	-0.026	0.149
-124.239	9.615	0.295	0.223
-123.224	6.335	-0.406	0.301
-122.210	-51.023	0.052	0.024
-121.195	-200.000	-0.024	0.264
