DTS Sentinel unit serial number:	SN413079Multiplexer serial number:	ORYXHardware model number:	OX4-SRSoftware version number:	ORYX F/W v4.00 Oryx Data Collector v3.7.2.0data status	okinstallation	princeton_trtdifferential loss correction	single-endedforward channel	channel 1reverse channel	N/Adate	2019/09/17time	01:06:35forward acquisition time	60.00reverse acquisition time	0.00gamma	496.2192k internal	0.2324k external	0.2324temperature offset calibration	0.9960default loss term (dB/km)	0.3790temperature slope calibration	1.0000multiplexer offset coefficient	1.0000multiplexer slope coefficient	1.0000fibre end	0.00T internal ref (°C)	29.45T ext. ref 1 (°C)	0.11T ext. ref 2 (°C)	24.11length (m)	temperature (°C)	Stokes	anti-Stokes-747.200	-15.913	0.240	0.154
-746.185	-34.033	0.056	-0.031
-745.171	-70.228	-0.080	0.031
-744.156	800.000	-0.105	0.443
-743.142	-200.000	0.038	0.217
-742.127	372.562	-0.121	0.248
-741.112	777.003	-0.067	-0.184
-740.098	-200.000	0.028	0.134
-739.083	47.798	0.156	0.147
-738.069	-84.901	-0.141	-0.045
-737.054	2.626	-0.244	0.178
-736.039	-108.296	-0.083	0.018
-735.025	140.207	0.134	-0.178
-734.010	-196.897	-0.141	-0.001
-732.996	86.205	-0.261	0.290
-731.981	-200.000	-0.001	0.070
-730.966	-200.000	0.010	0.217
-729.952	-80.767	-0.214	-0.072
-728.937	-42.040	0.424	-0.219
-727.923	-200.000	0.006	-0.094
-726.908	-200.000	0.026	-0.240
-725.894	62.314	-0.078	-0.078
-724.879	-50.499	-0.327	-0.156
-723.864	190.041	-0.036	0.054
-722.850	8.547	0.082	0.062
-721.835	-200.000	-0.016	-0.472
-720.821	-61.599	-0.403	-0.170
-719.806	43.363	-0.177	0.163
-718.791	-68.018	0.083	0.032
-717.777	-28.272	-0.099	-0.058
-716.762	21.303	0.283	-0.232
-715.748	112.666	0.150	-0.183
-714.733	-48.369	0.240	0.117
-713.718	316.510	-0.132	-0.251
-712.704	303.198	-0.025	-0.046
-711.689	-10.416	-0.048	-0.032
-710.675	-57.479	0.086	0.038
-709.660	282.174	0.074	0.134
-708.645	-200.000	-0.002	0.437
-707.631	-23.364	-0.116	0.070
-706.616	428.845	-0.119	-0.259
-705.602	-120.008	-0.086	0.015
-704.587	-101.155	-0.333	-0.082
-703.572	-65.131	0.077	0.031
-702.558	-200.000	0.079	-0.515
-701.543	-30.084	0.193	0.111
-700.529	532.068	0.139	-0.331
-699.514	5.144	0.079	-0.059
-698.499	68.891	0.135	-0.140
-697.485	176.677	0.055	-0.080
-696.470	-40.813	-0.177	-0.092
-695.456	133.583	0.139	-0.181
-694.441	-43.817	-0.243	-0.123
-693.426	-177.932	0.263	0.006
-692.412	-75.566	0.268	0.096
-691.397	-61.120	-0.228	0.097
-690.383	-42.232	0.136	-0.070
-689.368	11.079	-0.257	-0.198
-688.354	79.412	0.125	0.135
-687.339	800.000	0.082	-0.235
-686.324	524.216	0.069	-0.164
-685.310	-63.416	0.148	0.061
-684.295	-63.111	-0.320	0.133
-683.281	-41.188	0.205	0.106
-682.266	648.826	-0.140	-0.361
-681.251	74.993	0.181	0.192
-680.237	135.643	0.019	-0.025
-679.222	-129.585	-0.347	0.048
-678.208	-52.926	-0.199	0.092
-677.193	15.788	0.406	-0.322
-676.178	-6.179	0.245	-0.168
-675.164	127.133	0.012	-0.016
-674.149	548.209	-0.056	0.136
-673.135	-10.915	-0.095	-0.063
-672.120	208.264	-0.226	-0.356
-671.105	-10.433	0.042	0.028
-670.091	-200.000	-0.028	0.156
-669.076	-77.434	-0.172	-0.060
-668.062	178.438	-0.277	-0.406
-667.047	800.000	-0.008	-0.032
-666.032	240.524	-0.186	0.312
-665.018	-47.954	0.277	0.135
-664.003	19.684	-0.263	0.213
-662.989	-200.000	0.059	-0.327
-661.974	-35.559	0.136	0.074
-660.959	66.910	-0.295	0.302
-659.945	-185.042	0.224	0.004
-658.930	-200.000	0.054	-0.604
-657.916	-146.334	-0.300	-0.026
-656.901	-7.790	0.207	0.140
-655.886	-200.000	0.007	-0.113
-654.872	-71.912	-0.117	-0.044
-653.857	800.000	-0.044	-0.179
-652.843	611.119	-0.018	0.045
-651.828	-131.951	0.545	0.071
-650.814	-104.234	-0.299	-0.070
-649.799	2.326	-0.235	-0.171
-648.784	-86.180	0.163	-0.051
-647.770	-130.155	-0.274	-0.038
-646.755	-51.528	-0.098	-0.046
-645.741	798.085	-0.087	-0.241
-644.726	-109.949	-0.147	-0.031
-643.711	-12.786	0.349	0.228
-642.697	-200.000	-0.006	-0.080
-641.682	-154.650	-0.389	-0.026
-640.668	34.632	0.087	-0.076
-639.653	-31.216	-0.476	0.270
-638.638	41.989	-0.150	0.137
-637.624	-67.038	-0.248	0.098
-636.609	34.050	0.069	-0.061
-635.595	-46.529	0.226	-0.112
-634.580	-200.000	-0.036	0.173
-633.565	-121.415	0.285	-0.048
-632.551	-75.265	0.152	-0.055
-631.536	-80.293	0.186	-0.062
-630.522	688.266	-0.055	-0.145
-629.507	-28.574	0.007	0.004
-628.492	-133.721	0.287	-0.036
-627.478	175.628	0.100	0.145
-626.463	212.476	-0.203	-0.321
-625.449	-35.860	0.159	-0.086
-624.434	-149.350	-0.242	-0.019
-623.419	-37.336	-0.330	-0.177
-622.405	212.867	-0.077	-0.122
-621.390	129.901	-0.404	-0.520
-620.376	259.366	0.181	-0.314
-619.361	-136.050	0.261	-0.031
-618.346	718.061	-0.038	-0.101
-617.332	432.466	0.173	-0.377
-616.317	-112.850	-0.152	-0.030
-615.303	60.032	0.170	0.168
-614.288	567.038	-0.095	-0.232
-613.273	-47.717	0.086	-0.042
-612.259	-94.912	-0.141	0.038
-611.244	-103.633	0.178	0.042
-610.230	122.533	-0.074	0.093
-609.215	69.958	-0.071	0.073
-608.201	-64.264	-0.209	0.085
-607.186	-200.000	0.003	0.056
-606.171	147.570	0.145	0.196
-605.157	58.071	0.121	0.119
-604.142	-46.827	-0.276	0.136
-603.128	-4.363	-0.434	0.301
-602.113	312.392	-0.103	-0.194
-601.098	102.550	0.195	-0.229
-600.084	312.839	-0.130	-0.245
-599.069	143.569	0.096	0.128
-598.055	468.180	-0.032	0.072
-597.040	93.404	-0.200	0.227
-596.025	387.263	-0.203	-0.422
-595.011	-32.507	0.155	0.087
-593.996	137.643	0.161	-0.212
-592.982	471.745	0.052	0.118
-591.967	-92.797	0.170	-0.048
-590.952	394.298	0.060	-0.125
-589.938	-75.992	0.260	-0.092
-588.923	-200.000	-0.067	-0.465
-587.909	381.791	-0.048	0.098
-586.894	-200.000	0.029	-0.151
-585.879	-50.551	-0.168	0.080
-584.865	683.428	-0.101	-0.264
-583.850	-33.262	0.332	0.184
-582.836	-133.446	-0.198	0.025
-581.821	-113.814	0.236	-0.046
-580.806	-140.083	-0.140	0.015
-579.792	800.000	-0.077	0.224
-578.777	-7.423	-0.215	-0.146
-577.763	-118.002	-0.155	-0.028
-576.748	-200.000	-0.023	0.189
-575.733	265.225	0.020	0.035
-574.719	-94.911	-0.190	-0.052
-573.704	-64.410	-0.145	-0.059
-572.690	-61.133	0.055	0.023
-571.675	83.205	0.171	0.186
-570.661	505.935	-0.157	-0.364
-569.646	-69.644	-0.590	-0.226
-568.631	-200.000	-0.026	0.429
-567.617	328.958	-0.074	0.142
-566.602	-200.000	0.017	0.340
-565.588	-200.000	-0.007	-0.036
-564.573	-43.044	0.083	0.042
-563.558	375.537	-0.107	0.218
-562.544	262.015	-0.132	0.229
-561.529	-155.188	0.300	-0.020
-560.515	800.000	0.007	-0.023
-559.500	-200.000	-0.017	0.342
-558.485	-19.388	0.180	-0.112
-557.471	-103.991	0.142	-0.033
-556.456	-34.554	-0.244	0.134
-555.442	-50.154	-0.087	0.041
-554.427	376.199	0.067	0.137
-553.412	385.376	0.052	-0.108
-552.398	142.411	-0.128	-0.171
-551.383	-41.241	-0.049	-0.025
-550.369	593.885	-0.013	-0.032
-549.354	80.436	0.150	-0.162
-548.339	421.078	-0.127	-0.273
-547.325	-200.000	0.000	-0.083
-546.310	-138.437	-0.230	-0.025
-545.296	-10.106	0.024	0.016
-544.281	-45.079	-0.141	-0.071
-543.266	101.503	0.127	0.148
-542.252	548.766	0.046	0.112
-541.237	800.000	0.033	-0.117
-540.223	-119.976	-0.162	-0.028
-539.208	-19.356	0.137	0.085
-538.193	-65.451	0.397	-0.160
-537.179	107.277	0.057	-0.068
-536.164	-126.059	0.072	0.011
-535.150	-200.000	-0.031	0.267
-534.135	-80.756	0.306	0.102
-533.121	148.864	-0.215	-0.291
-532.106	-193.071	-0.252	-0.002
-531.091	139.548	0.151	0.199
-530.077	800.000	-0.062	-0.251
-529.062	-200.000	-0.022	0.210
-528.048	252.007	0.040	-0.068
-527.033	800.000	0.111	-0.318
-526.018	455.012	-0.080	0.178
-525.004	33.566	0.099	-0.086
-523.989	-98.332	-0.101	-0.026
-522.975	800.000	-0.158	-0.438
-521.960	-200.000	-0.005	-0.033
-520.945	-183.236	0.318	0.006
-519.931	800.000	-0.113	0.320
-518.916	-200.000	0.003	0.230
-517.902	-200.000	-0.010	0.117
-516.887	-133.587	-0.183	0.023
-515.872	-200.000	0.004	-0.131
-514.858	-61.510	0.104	-0.044
-513.843	33.015	-0.064	0.056
-512.829	592.813	-0.040	0.099
-511.814	-200.000	-0.009	-0.164
-510.799	-95.600	-0.090	-0.024
-509.785	-131.014	0.383	0.051
-508.770	-110.328	-0.339	0.071
-507.756	164.083	0.047	0.066
-506.741	47.853	-0.056	0.052
-505.726	34.909	-0.115	0.101
-504.712	659.527	-0.109	0.280
-503.697	-65.028	-0.308	0.124
-502.683	800.000	0.038	0.165
-501.668	-46.597	-0.253	-0.124
-500.653	-172.570	-0.036	0.001
-499.639	-8.189	0.302	-0.203
-498.624	42.645	-0.086	0.078
-497.610	-200.000	0.038	-0.178
-496.595	63.162	0.071	-0.071
-495.581	215.594	0.229	-0.363
-494.566	-200.000	-0.064	-0.419
-493.551	168.439	0.126	-0.180
-492.537	-76.204	-0.170	-0.060
-491.522	-50.940	-0.220	-0.103
-490.508	-200.000	0.017	0.365
-489.493	-49.211	0.013	-0.006
-488.478	81.258	0.117	-0.126
-487.464	-104.029	0.138	-0.032
-486.449	308.836	0.131	-0.244
-485.435	-200.000	0.002	-0.015
-484.420	21.868	-0.069	0.056
-483.405	-81.528	0.271	0.089
-482.391	-57.610	0.169	0.074
-481.376	-200.000	0.018	-0.089
-480.362	-68.420	-0.184	0.071
-479.347	-8.066	-0.154	0.104
-478.332	-135.427	-0.183	0.022
-477.318	-95.077	-0.046	0.012
-476.303	242.217	-0.036	0.060
-475.289	800.000	0.090	-0.343
-474.274	150.890	0.244	0.332
-473.259	-200.000	0.067	-0.297
-472.245	-110.569	-0.455	-0.094
-471.230	10.110	-0.295	-0.224
-470.216	-125.801	0.363	0.055
-469.201	118.498	0.051	-0.063
-468.186	465.064	-0.090	0.202
-467.172	21.528	0.106	0.086
-466.157	-155.043	-0.266	-0.017
-465.143	-200.000	0.023	-0.100
-464.128	71.474	0.157	-0.163
-463.113	10.262	0.009	0.007
-462.099	10.686	-0.136	0.103
-461.084	-137.628	0.299	-0.034
-460.070	108.975	0.186	-0.222
-459.055	-200.000	-0.090	0.498
-458.040	35.510	0.014	0.012
-457.026	158.813	-0.238	0.330
-456.011	-153.805	-0.106	0.007
-454.997	-29.883	-0.129	0.074
-453.982	-8.941	0.062	0.041
-452.968	-200.000	-0.020	0.110
-451.953	-42.409	-0.072	0.037
-450.938	-44.260	-0.218	0.109
-449.924	-97.091	0.086	-0.022
-448.909	-200.000	-0.013	-0.175
-447.895	8.145	0.201	0.151
-446.880	-157.185	0.302	-0.018
-445.865	-113.157	0.197	-0.039
-444.851	-60.074	-0.037	-0.016
-443.836	-103.376	0.320	-0.075
-442.822	585.580	0.111	-0.271
-441.807	-89.662	-0.252	-0.074
-440.792	-200.000	-0.349	-0.002
-439.778	190.422	0.098	-0.146
-438.763	-67.837	0.054	0.021
-437.749	-200.000	-0.076	-0.426
-436.734	79.026	0.144	-0.153
-435.719	89.329	0.072	0.080
-434.705	14.829	0.036	0.028
-433.690	-130.964	-0.271	0.036
-432.676	-200.000	0.027	-0.236
-431.661	-16.617	-0.086	0.054
-430.646	-200.000	-0.047	-0.250
-429.632	507.289	-0.057	0.132
-428.617	-36.263	0.306	0.165
-427.603	-50.903	-0.198	-0.093
-426.588	-2.867	-0.177	0.123
-425.573	-200.000	-0.008	0.110
-424.559	100.749	0.201	-0.233
-423.544	-200.000	0.003	0.136
-422.530	-200.000	0.006	0.042
-421.515	-200.000	0.021	-0.157
-420.500	-200.000	0.012	0.185
-419.486	189.695	0.129	0.193
-418.471	383.558	-0.054	-0.111
-417.457	800.000	0.067	-0.235
-416.442	-73.147	-0.298	0.109
-415.428	378.691	-0.079	-0.161
-414.413	-200.000	-0.025	-0.133
-413.398	-200.000	0.002	0.058
-412.384	-78.684	-0.189	-0.064
-411.369	-200.000	-0.112	0.000
-410.355	-174.738	0.157	0.004
-409.340	41.030	0.226	0.203
-408.325	47.333	0.090	0.083
-407.311	535.078	0.088	0.209
-406.296	31.132	0.144	0.123
-405.282	77.614	0.280	-0.298
-404.267	800.000	-0.041	0.142
-403.252	-96.126	0.380	0.101
-402.238	21.486	0.168	0.136
-401.223	14.258	-0.194	-0.151
-400.209	-151.929	0.326	0.024
-399.194	-200.000	0.014	-0.090
-398.179	-145.878	0.116	-0.010
-397.165	-200.000	-0.080	-0.366
-396.150	-39.116	0.396	-0.207
-395.136	98.458	0.037	0.043
-394.121	-109.488	0.282	0.059
-393.106	428.222	-0.066	0.141
-392.092	-68.655	0.295	-0.114
-391.077	305.870	0.104	-0.192
-390.063	227.384	0.044	0.070
-389.048	800.000	-0.046	-0.152
-388.033	-200.000	0.045	-0.285
-387.019	-30.476	-0.041	-0.023
-386.004	-200.000	-0.012	-0.300
-384.990	-39.684	-0.168	-0.088
-383.975	-12.286	0.471	0.307
-382.960	-27.979	0.231	0.133
-381.946	737.063	-0.107	-0.287
-380.931	-117.009	-0.246	0.045
-379.917	-93.850	0.180	0.049
-378.902	474.188	0.078	0.174
-377.888	374.253	-0.025	0.051
-376.873	800.000	0.044	-0.179
-375.858	-70.557	0.020	0.007
-374.844	-55.006	-0.290	-0.130
-373.829	-143.741	0.031	0.003
-372.815	-15.161	-0.282	-0.180
-371.800	-70.767	0.135	-0.051
-370.785	-109.453	0.144	0.030
-369.771	-23.117	-0.258	0.154
-368.756	39.249	-0.153	0.136
-367.742	175.840	0.105	0.152
-366.727	56.062	0.288	-0.279
-365.712	-42.899	-0.156	-0.079
-364.698	-200.000	-0.011	-0.175
-363.683	-200.000	0.024	-0.270
-362.669	-200.000	-0.004	-0.041
-361.654	-200.000	-0.017	-0.259
-360.639	-200.000	-0.012	0.212
-359.625	-52.216	-0.116	0.054
-358.610	196.914	0.075	0.113
-357.596	-26.035	-0.174	-0.102
-356.581	-62.270	-0.217	-0.090
-355.566	30.914	-0.223	-0.190
-354.552	692.325	0.046	-0.120
-353.537	95.034	0.150	0.170
-352.523	326.437	-0.144	0.275
-351.508	-163.765	0.200	0.009
-350.493	67.228	0.176	0.179
-349.479	474.756	-0.002	-0.005
-348.464	-163.838	-0.152	0.007
-347.450	800.000	-0.040	0.121
-346.435	-31.679	-0.352	-0.197
-345.420	-162.261	-0.341	-0.017
-344.406	436.091	-0.037	0.080
-343.391	-200.000	0.006	0.192
-342.377	-17.608	-0.226	-0.141
-341.362	800.000	0.023	0.081
-340.348	-56.937	-0.076	0.033
-339.333	-200.000	-0.036	0.305
-338.318	-7.928	-0.335	0.225
-337.304	-68.202	-0.163	0.063
-336.289	70.121	0.123	0.126
-335.275	-200.000	0.048	-0.377
-334.260	71.319	0.173	-0.178
-333.245	125.420	-0.186	0.233
-332.231	-22.512	0.220	-0.132
-331.216	140.180	0.068	0.089
-330.202	800.000	0.084	0.269
-329.187	-169.473	0.254	-0.009
-328.172	-21.968	0.212	0.128
-327.158	800.000	0.075	0.281
-326.143	-155.237	-0.220	0.014
-325.129	46.969	0.153	-0.142
-324.114	-30.908	0.220	-0.123
-323.099	-97.665	-0.240	0.062
-322.085	-189.774	-0.259	0.003
-321.070	-200.000	-0.004	-0.337
-320.056	-6.466	0.229	-0.155
-319.041	477.261	-0.076	0.171
-318.026	-85.261	0.367	0.114
-317.012	314.774	-0.182	-0.341
-315.997	517.648	0.047	-0.108
-314.983	-37.051	0.192	0.102
-313.968	199.588	-0.091	0.139
-312.953	-200.000	0.006	0.130
-311.939	257.534	-0.074	-0.126
-310.924	-20.945	0.096	-0.058
-309.910	-118.655	0.145	0.025
-308.895	-200.000	0.053	0.422
-307.880	36.798	0.355	0.311
-306.866	-200.000	-0.043	0.287
-305.851	-113.617	-0.069	-0.013
-304.837	-200.000	-0.027	-0.233
-303.822	9.588	0.209	-0.157
-302.807	32.661	-0.175	-0.150
-301.793	-69.217	0.456	0.174
-300.778	87.120	0.055	-0.060
-299.764	-133.087	0.280	-0.035
-298.749	63.063	-0.104	-0.104
-297.735	-200.000	0.009	-0.132
-296.720	167.648	0.172	-0.243
-295.705	15.704	-0.127	0.099
-294.691	162.753	-0.026	0.036
-293.676	-136.013	-0.037	0.004
-292.662	-87.501	0.034	0.010
-291.647	-200.000	0.063	0.514
-290.632	-200.000	-0.060	0.427
-289.618	7.953	0.195	0.145
-288.603	-53.400	0.188	0.085
-287.589	-70.846	0.121	-0.045
-286.574	265.244	0.157	-0.272
-285.559	381.017	-0.132	-0.269
-284.545	538.799	0.109	0.257
-283.530	-107.669	-0.137	-0.030
-282.516	-40.880	0.361	-0.185
-281.501	-52.922	0.432	0.197
-280.486	-94.862	-0.269	-0.072
-279.472	45.767	-0.026	0.024
-278.457	223.007	0.034	-0.054
-277.443	89.532	-0.209	0.232
-276.428	-69.653	0.276	-0.104
-275.413	88.873	-0.278	-0.307
-274.399	705.224	0.010	0.025
-273.384	-2.443	0.328	0.228
-272.370	339.565	0.165	-0.318
-271.355	-111.777	-0.215	0.043
-270.340	-49.964	0.056	0.026
-269.326	70.343	0.008	0.008
-268.311	798.198	-0.105	0.286
-267.297	-57.293	-0.283	0.123
-266.282	188.203	0.207	0.306
-265.267	76.419	-0.167	0.175
-264.253	-200.000	-0.011	-0.332
-263.238	179.910	0.157	0.228
-262.224	93.851	-0.305	-0.342
-261.209	800.000	0.050	0.212
-260.195	800.000	-0.064	0.269
-259.180	214.803	-0.090	-0.141
-258.165	800.000	-0.075	-0.250
-257.151	-52.083	0.166	-0.076
-256.136	791.789	-0.077	0.209
-255.122	-125.485	0.274	0.041
-254.107	-121.371	-0.220	-0.036
-253.092	-102.534	-0.130	-0.031
-252.078	-22.605	-0.170	-0.102
-251.063	94.152	0.197	0.221
-250.049	163.607	-0.277	0.386
-249.034	-200.000	0.015	-0.168
-248.019	83.115	-0.117	0.126
-247.005	-54.854	-0.116	0.052
-245.990	-131.224	0.178	0.023
-244.976	-200.000	0.029	-0.212
-243.961	48.818	0.207	0.193
-242.946	-52.329	0.196	0.090
-241.932	-117.082	0.215	-0.039
-240.917	-64.434	-0.284	-0.114
-239.903	-29.034	0.075	-0.043
-238.888	-31.946	-0.180	0.100
-237.873	-119.494	-0.280	-0.048
-236.859	584.468	-0.101	0.246
-235.844	68.188	0.083	0.084
-234.830	132.301	-0.221	-0.282
-233.815	-31.277	-0.378	-0.210
-232.800	-200.000	-0.014	0.156
-231.786	-72.405	-0.243	-0.089
-230.771	4.805	0.348	-0.253
-229.757	800.000	0.069	-0.298
-228.742	-49.561	-0.152	-0.072
-227.727	-70.166	0.197	0.074
-226.713	-157.546	-0.093	-0.006
-225.698	-28.552	0.233	0.133
-224.684	-200.000	0.008	0.075
-223.669	-200.000	0.084	0.482
-222.655	561.794	0.037	-0.088
-221.640	-95.111	-0.138	-0.037
-220.625	-72.114	-0.220	0.081
-219.611	-35.012	0.068	0.037
-218.596	800.000	-0.037	-0.126
-217.582	134.794	-0.040	0.052
-216.567	344.518	-0.154	-0.299
-215.552	186.758	0.111	-0.164
-214.538	540.131	0.039	0.093
-213.523	800.000	-0.074	0.211
-212.509	800.000	0.065	0.195
-211.494	-136.765	-0.310	0.035
-210.479	165.912	0.108	0.151
-209.465	-5.118	0.171	0.116
-208.450	-110.169	-0.103	-0.021
-207.436	-191.534	0.422	-0.004
-206.421	140.490	-0.041	-0.054
-205.406	-85.744	-0.425	-0.130
-204.392	-90.237	-0.203	-0.058
-203.377	45.086	0.132	0.120
-202.363	-200.000	-0.010	0.269
-201.348	457.258	0.171	0.376
-200.333	-122.645	0.210	-0.034
-199.319	-200.000	0.010	-0.124
-198.304	168.096	-0.081	-0.114
-197.290	800.000	0.035	0.121
-196.275	-200.000	0.001	0.056
-195.260	-77.854	-0.024	0.008
-194.246	-200.000	0.074	-0.349
-193.231	28.344	-0.238	0.199
-192.217	-103.208	-0.138	0.032
-191.202	-161.657	-0.186	-0.009
-190.187	-75.547	0.323	0.114
-189.173	409.380	0.168	-0.352
-188.158	-70.444	0.230	-0.086
-187.144	110.126	-0.236	0.280
-186.129	247.509	0.329	0.548
-185.114	-41.887	0.204	0.104
-184.100	43.397	0.070	-0.063
-183.085	-200.000	-0.063	0.295
-182.071	56.394	0.054	0.052
-181.056	-165.357	0.487	-0.021
-180.042	-22.089	-0.148	-0.089
-179.027	-26.188	-0.355	0.206
-178.012	596.193	-0.143	0.350
-176.998	-172.357	0.213	-0.007
-175.983	112.942	0.153	0.183
-174.969	-147.127	-0.203	-0.017
-173.954	572.037	-0.121	0.291
-172.939	800.000	-0.013	0.046
-171.925	-107.672	0.246	-0.053
-170.910	2.504	0.250	-0.179
-169.896	416.694	-0.132	0.277
-168.881	107.699	0.187	0.219
-167.866	-200.000	-0.047	-0.233
-166.852	-113.359	-0.299	-0.058
-165.837	21.724	0.182	-0.146
-164.823	-94.492	-0.310	0.084
-163.808	800.000	-0.040	0.146
-162.793	-65.585	0.259	0.103
-161.779	-45.323	-0.202	-0.099
-160.764	105.850	-0.168	0.197
-159.750	-70.757	0.254	0.095
-158.735	800.000	-0.045	0.122
-157.720	-122.939	-0.290	-0.046
-156.706	-31.806	0.225	-0.124
-155.691	89.072	-0.158	-0.173
-154.677	-26.656	-0.203	0.117
-153.662	-65.307	0.308	-0.122
-152.647	-14.281	-0.033	-0.021
-151.633	216.792	-0.184	-0.288
-150.618	-131.600	0.272	-0.035
-149.604	-101.256	0.137	0.033
-148.589	48.567	0.116	-0.107
-147.574	-157.684	0.333	0.020
-146.560	-25.816	0.227	-0.132
-145.545	362.424	-0.093	-0.183
-144.531	528.989	0.058	0.135
-143.516	190.051	-0.109	0.162
-142.502	18.073	-0.218	0.172
-141.487	209.136	0.177	0.273
-140.472	324.925	-0.165	0.311
-139.458	-56.741	-0.167	-0.073
-138.443	400.597	-0.044	0.092
-137.429	-100.382	-0.096	0.024
-136.414	82.313	0.093	0.099
-135.399	-192.054	0.316	-0.003
-134.385	-23.944	0.250	0.147
-133.370	-14.378	0.185	0.117
-132.356	15.774	0.303	-0.235
-131.341	731.548	-0.105	0.277
-130.326	-36.266	-0.197	-0.104
-129.312	33.884	-0.128	-0.110
-128.297	-30.129	0.383	-0.215
-127.283	180.776	0.172	0.249
-126.268	631.968	0.098	0.245
-125.253	-28.687	0.170	0.097
-124.239	-133.524	0.314	-0.039
-123.224	-176.418	-0.031	-0.001
-122.210	-184.852	-0.055	0.001
-121.195	-200.000	-0.037	0.365
