DTS Sentinel unit serial number:	SN413079Multiplexer serial number:	ORYXHardware model number:	OX4-SRSoftware version number:	ORYX F/W v4.00 Oryx Data Collector v3.7.2.0data status	okinstallation	princeton_trtdifferential loss correction	single-endedforward channel	channel 1reverse channel	N/Adate	2019/09/14time	14:50:35forward acquisition time	60.00reverse acquisition time	0.00gamma	496.2192k internal	0.2294k external	0.2294temperature offset calibration	1.0072default loss term (dB/km)	0.3790temperature slope calibration	1.0000multiplexer offset coefficient	1.0000multiplexer slope coefficient	1.0000fibre end	0.00T internal ref (°C)	39.17T ext. ref 1 (°C)	4.99T ext. ref 2 (°C)	33.78length (m)	temperature (°C)	Stokes	anti-Stokes-747.200	-128.941	-0.264	0.038
-746.185	800.000	0.086	0.352
-745.171	-40.914	0.336	0.177
-744.156	-97.280	-0.286	0.076
-743.142	43.768	0.122	-0.114
-742.127	-79.860	0.140	0.048
-741.112	-102.632	0.331	-0.081
-740.098	800.000	0.095	0.363
-739.083	157.626	0.072	-0.102
-738.069	-101.621	-0.157	0.039
-737.054	53.976	-0.081	0.080
-736.039	-62.088	-0.418	-0.179
-735.025	77.728	0.166	-0.181
-734.010	-200.000	-0.043	-0.195
-732.996	72.974	-0.201	-0.215
-731.981	16.317	0.284	-0.229
-730.966	-200.000	-0.010	-0.112
-729.952	767.319	0.124	0.344
-728.937	-20.648	-0.255	0.160
-727.923	-59.755	-0.111	0.048
-726.908	-16.401	0.065	-0.042
-725.894	238.545	0.178	0.302
-724.879	-108.344	-0.235	0.052
-723.864	800.000	0.117	-0.388
-722.850	24.889	0.239	-0.203
-721.835	-200.000	-0.014	0.110
-720.821	-136.255	0.121	0.014
-719.806	-140.030	-0.151	-0.016
-718.791	-15.036	0.112	0.073
-717.777	-101.234	-0.383	0.096
-716.762	124.409	-0.225	0.289
-715.748	318.048	0.089	-0.171
-714.733	-80.551	0.381	-0.130
-713.718	-20.545	0.160	0.101
-712.704	394.960	-0.052	0.110
-711.689	-200.000	0.014	-0.462
-710.675	-61.760	-0.399	-0.171
-709.660	800.000	-0.081	-0.265
-708.645	599.161	0.032	0.081
-707.631	50.581	-0.102	-0.099
-706.616	-200.000	0.007	0.145
-705.602	112.300	0.086	0.106
-704.587	-200.000	-0.026	-0.166
-703.572	-200.000	-0.006	0.073
-702.558	-83.324	-0.096	-0.032
-701.543	42.405	-0.128	0.119
-700.529	487.891	0.145	-0.339
-699.514	83.630	-0.131	0.146
-698.499	-200.000	0.010	-0.153
-697.485	149.849	-0.025	-0.035
-696.470	-71.609	0.174	0.066
-695.456	-200.000	0.001	-0.138
-694.441	-58.255	-0.196	0.087
-693.426	-200.000	-0.011	-0.155
-692.412	21.303	0.163	0.135
-691.397	29.398	-0.024	-0.021
-690.383	-9.623	-0.285	0.194
-689.368	-105.824	-0.397	-0.091
-688.354	386.975	-0.132	-0.279
-687.339	545.609	0.022	0.053
-686.324	163.142	0.167	-0.240
-685.310	-200.000	-0.076	-0.416
-684.295	126.684	-0.318	-0.411
-683.281	-200.000	0.037	-0.529
-682.266	-73.394	-0.212	-0.079
-681.251	376.745	-0.097	-0.202
-680.237	-69.538	0.239	-0.093
-679.222	99.917	-0.061	0.073
-678.208	-200.000	-0.030	-0.136
-677.193	221.371	0.046	0.075
-676.178	800.000	0.107	-0.342
-675.164	-162.729	-0.296	0.015
-674.149	70.004	0.095	-0.100
-673.135	-200.000	0.021	0.285
-672.120	79.086	-0.081	-0.088
-671.105	-200.000	-0.017	-0.149
-670.091	8.731	-0.217	-0.167
-669.076	459.195	0.029	-0.065
-668.062	-93.045	-0.226	0.064
-667.047	800.000	0.015	-0.054
-666.032	-55.133	-0.155	0.071
-665.018	-100.406	-0.317	-0.080
-664.003	800.000	0.075	-0.303
-662.989	312.457	-0.086	-0.165
-661.974	75.149	0.202	-0.217
-660.959	53.824	-0.180	-0.176
-659.945	-200.000	0.008	0.082
-658.930	-130.279	0.293	-0.041
-657.916	-38.544	0.169	-0.091
-656.901	-200.000	0.009	-0.063
-655.886	-137.515	0.091	-0.011
-654.872	-128.197	-0.234	-0.034
-653.857	29.764	-0.252	0.218
-652.843	-200.000	-0.034	-0.242
-651.828	95.301	-0.113	-0.132
-650.814	674.779	-0.059	0.157
-649.799	46.292	-0.140	0.132
-648.784	107.259	0.281	-0.340
-647.770	-50.089	0.302	-0.146
-646.755	103.195	-0.164	-0.196
-645.741	22.524	0.079	0.065
-644.726	-99.789	-0.380	-0.097
-643.711	-51.343	0.130	0.062
-642.697	-83.868	-0.151	0.049
-641.682	-144.389	0.348	0.033
-640.668	4.664	0.115	0.086
-639.653	-117.064	0.197	0.037
-638.638	-200.000	-0.024	-0.205
-637.624	-200.000	-0.012	-0.305
-636.609	-71.049	-0.289	0.111
-635.595	164.242	0.146	0.209
-634.580	460.427	-0.109	-0.247
-633.565	-156.301	-0.221	0.014
-632.551	-143.311	0.112	0.011
-631.536	-200.000	0.015	0.068
-630.522	34.345	0.145	-0.129
-629.507	800.000	0.057	-0.183
-628.492	15.976	-0.081	0.065
-627.478	-65.047	0.217	0.089
-626.463	800.000	-0.068	-0.276
-625.449	-200.000	-0.003	-0.320
-624.434	-56.014	-0.403	-0.183
-623.419	150.219	-0.097	0.134
-622.405	-72.306	0.127	-0.048
-621.390	104.269	0.051	-0.062
-620.376	-67.282	-0.174	-0.070
-619.361	800.000	-0.045	-0.163
-618.346	-118.814	-0.301	0.054
-617.332	28.079	-0.091	-0.078
-616.317	676.482	0.044	0.117
-615.303	44.669	0.181	-0.169
-614.288	132.339	-0.087	0.114
-613.273	-51.506	-0.161	-0.077
-612.259	154.551	-0.100	-0.140
-611.244	-103.707	-0.212	-0.050
-610.230	-143.565	0.196	0.019
-609.215	454.704	0.099	0.223
-608.201	-200.000	-0.076	0.433
-607.186	-101.007	0.296	0.074
-606.171	-13.483	-0.231	-0.152
-605.157	51.940	-0.162	0.157
-604.142	-32.048	-0.246	0.140
-603.128	-78.752	-0.245	0.085
-602.113	520.663	-0.025	0.059
-601.098	-200.000	-0.014	0.000
-600.084	546.882	-0.058	-0.140
-599.069	281.963	0.223	-0.407
-598.055	-149.746	-0.140	-0.011
-597.040	-200.000	-0.024	-0.137
-596.025	139.892	-0.206	-0.276
-595.011	-47.090	-0.299	-0.148
-593.996	-149.266	0.356	0.029
-592.982	-103.917	-0.109	-0.026
-591.967	263.555	0.030	-0.053
-590.952	0.929	0.311	0.226
-589.938	-131.415	-0.227	0.031
-588.923	-200.000	0.042	-0.335
-587.909	-109.966	0.038	-0.008
-586.894	-12.855	0.065	-0.043
-585.879	-200.000	-0.021	0.119
-584.865	535.058	-0.093	-0.223
-583.850	-46.106	0.276	0.138
-582.836	60.788	0.145	-0.147
-581.821	-31.583	0.281	-0.160
-580.806	131.922	-0.079	0.104
-579.792	-20.348	-0.148	0.093
-578.777	46.404	-0.096	0.091
-577.763	1.154	-0.225	-0.164
-576.748	-200.000	-0.016	-0.112
-575.733	-53.165	-0.332	-0.155
-574.719	-90.632	-0.133	-0.039
-573.704	258.280	0.113	0.198
-572.690	-200.000	0.006	0.231
-571.675	-21.172	-0.133	-0.083
-570.661	125.776	0.162	0.208
-569.646	-200.000	0.003	0.041
-568.631	573.759	0.034	0.085
-567.617	62.243	0.047	0.048
-566.602	-141.099	0.324	-0.034
-565.588	800.000	-0.120	-0.346
-564.573	-103.934	-0.131	0.031
-563.558	-200.000	-0.012	0.123
-562.544	-71.187	-0.138	0.053
-561.529	233.605	-0.203	-0.340
-560.515	-200.000	-0.038	0.186
-559.500	-112.577	0.080	0.016
-558.485	-200.000	0.040	0.238
-557.471	-37.110	-0.258	0.140
-556.456	-200.000	0.010	-0.062
-555.442	130.214	0.109	0.141
-554.427	-110.240	-0.156	-0.033
-553.412	-132.455	0.352	0.046
-552.398	-200.000	0.036	0.311
-551.383	-14.987	-0.106	-0.069
-550.369	101.483	0.067	0.080
-549.354	221.569	-0.268	-0.438
-548.339	-166.770	-0.071	0.003
-547.325	573.170	-0.029	0.071
-546.310	-200.000	-0.018	0.335
-545.296	40.704	0.150	-0.137
-544.281	800.000	0.051	-0.196
-543.266	-107.129	-0.206	0.046
-542.252	158.503	0.137	0.193
-541.237	659.246	-0.093	0.243
-540.223	-37.987	-0.145	0.078
-539.208	-200.000	0.042	-0.368
-538.193	-200.000	0.101	-0.486
-537.179	138.242	-0.048	0.064
-536.164	-74.362	-0.271	0.099
-535.150	-167.086	0.339	-0.014
-534.135	28.516	0.086	0.074
-533.121	602.597	0.038	0.097
-532.106	283.127	0.230	0.419
-531.091	79.505	-0.187	0.204
-530.077	124.405	0.204	0.260
-529.062	87.337	-0.173	0.194
-528.048	113.206	-0.132	0.162
-527.033	-200.000	0.081	0.388
-526.018	2.329	-0.222	0.163
-525.004	170.684	-0.150	0.217
-523.989	-89.503	-0.087	0.026
-522.975	-74.462	0.446	0.163
-521.960	582.323	0.161	-0.402
-520.945	56.172	0.073	0.072
-519.931	800.000	-0.050	0.176
-518.916	41.434	0.056	-0.051
-517.902	-200.000	0.029	-0.143
-516.887	800.000	0.172	-0.511
-515.872	19.409	-0.260	-0.212
-514.858	-155.321	-0.061	-0.004
-513.843	-200.000	0.005	-0.389
-512.829	-47.645	0.244	-0.120
-511.814	-45.047	0.074	-0.037
-510.799	-40.897	-0.070	-0.037
-509.785	-131.731	-0.446	-0.059
-508.770	-77.075	-0.133	0.047
-507.756	-200.000	-0.032	0.201
-506.741	525.098	-0.048	-0.113
-505.726	-94.720	-0.351	-0.097
-504.712	493.611	-0.092	0.214
-503.697	-140.981	0.282	-0.029
-502.683	50.806	0.021	0.020
-501.668	800.000	0.031	0.103
-500.653	334.703	0.073	-0.143
-499.639	126.698	-0.131	-0.168
-498.624	-200.000	0.011	0.058
-497.610	800.000	0.045	0.188
-496.595	79.121	-0.168	0.182
-495.581	425.340	0.071	-0.156
-494.566	83.045	0.121	0.134
-493.551	800.000	-0.069	0.294
-492.537	-66.130	-0.009	-0.003
-491.522	-97.987	-0.435	-0.113
-490.508	36.368	-0.148	0.132
-489.493	37.858	-0.111	-0.100
-488.478	-200.000	-0.021	-0.259
-487.464	-200.000	-0.021	-0.202
-486.449	-25.153	-0.240	0.144
-485.435	-86.919	0.331	-0.102
-484.420	-200.000	-0.026	0.364
-483.405	-200.000	0.003	-0.176
-482.391	-164.420	-0.144	0.007
-481.376	-200.000	0.011	-0.299
-480.362	-200.000	-0.075	0.362
-479.347	-145.314	0.198	0.018
-478.332	-19.866	0.277	-0.173
-477.318	-200.000	-0.029	0.181
-476.303	-200.000	-0.032	-0.160
-475.289	-54.178	-0.094	-0.043
-474.274	-200.000	-0.023	-0.185
-473.259	-45.908	0.348	0.174
-472.245	-133.451	0.083	-0.011
-471.230	-87.796	0.017	0.005
-470.216	-74.471	0.247	0.090
-469.201	-27.457	-0.158	-0.093
-468.186	-62.453	-0.059	0.025
-467.172	-200.000	0.005	0.046
-466.157	289.765	-0.185	-0.340
-465.143	60.774	-0.322	-0.323
-464.128	288.716	0.113	-0.207
-463.113	98.950	-0.189	-0.221
-462.099	-118.154	0.275	0.050
-461.084	206.774	0.124	0.196
-460.070	37.990	-0.168	0.151
-459.055	37.163	0.195	0.174
-458.040	-40.510	-0.080	0.042
-457.026	292.144	0.077	-0.142
-456.011	-200.000	0.010	0.130
-454.997	-37.710	0.037	-0.020
-453.982	-3.071	-0.275	0.194
-452.968	800.000	-0.076	-0.254
-451.953	313.760	0.040	-0.077
-450.938	-200.000	-0.017	0.103
-449.924	-200.000	-0.011	0.185
-448.909	601.946	0.098	0.247
-447.895	-111.306	-0.246	0.051
-446.880	800.000	0.097	0.397
-445.865	-132.437	-0.323	-0.042
-444.851	260.809	-0.061	0.107
-443.836	-131.701	0.091	0.012
-442.822	-200.000	-0.047	-0.303
-441.807	541.383	0.092	-0.221
-440.792	622.292	0.043	-0.110
-439.778	-200.000	-0.007	-0.149
-438.763	-91.134	-0.182	-0.053
-437.749	6.255	0.032	0.024
-436.734	-78.035	-0.094	-0.033
-435.719	320.136	0.149	0.286
-434.705	-200.000	-0.074	-0.467
-433.690	233.088	-0.105	-0.175
-432.676	-200.000	-0.025	0.372
-431.661	-115.567	0.215	-0.041
-430.646	-60.391	0.088	-0.038
-429.632	-116.286	0.184	0.034
-428.617	-138.935	-0.048	0.005
-427.603	51.143	-0.175	-0.168
-426.588	-126.383	0.259	0.039
-425.573	66.110	0.040	-0.041
-424.559	-62.239	0.276	-0.116
-423.544	-97.450	-0.080	-0.021
-422.530	-78.776	0.186	-0.064
-421.515	-31.172	-0.198	0.113
-420.500	104.383	-0.124	0.147
-419.486	-200.000	-0.013	-0.092
-418.471	797.656	-0.025	-0.070
-417.457	221.594	0.126	-0.205
-416.442	-53.426	-0.066	0.030
-415.428	116.665	0.183	0.227
-414.413	287.871	-0.075	-0.136
-413.398	435.877	0.065	-0.143
-412.384	-51.415	-0.132	0.062
-411.369	242.518	-0.202	0.341
-410.355	-200.000	0.023	0.149
-409.340	-140.778	0.193	-0.020
-408.325	110.401	-0.173	-0.210
-407.311	-87.236	0.096	0.029
-406.296	-200.000	-0.059	0.294
-405.282	188.717	-0.147	0.221
-404.267	37.604	-0.032	0.029
-403.252	-90.040	-0.333	-0.098
-402.238	800.000	0.066	0.281
-401.223	-150.314	-0.132	-0.010
-400.209	626.640	-0.052	-0.132
-399.194	-63.978	0.128	0.053
-398.179	-96.950	0.290	0.077
-397.165	5.555	0.109	0.081
-396.150	50.205	-0.133	0.127
-395.136	800.000	-0.074	0.319
-394.121	244.311	-0.084	0.142
-393.106	-200.000	0.012	0.393
-392.092	160.316	0.169	-0.238
-391.077	113.984	0.129	-0.158
-390.063	-200.000	-0.026	0.299
-389.048	-200.000	0.015	-0.172
-388.033	11.364	0.217	-0.167
-387.019	-168.543	0.331	0.013
-386.004	-134.049	0.414	-0.052
-384.990	21.989	0.245	0.202
-383.975	-6.280	0.181	0.125
-382.960	-27.114	0.176	0.103
-381.946	-36.060	0.156	0.085
-380.931	156.899	0.301	-0.419
-379.917	85.483	0.127	0.141
-378.902	-98.847	-0.197	0.051
-377.888	162.159	0.037	0.053
-376.873	800.000	-0.044	0.165
-375.858	800.000	0.073	0.271
-374.844	84.295	-0.104	0.114
-373.829	-200.000	0.022	-0.193
-372.815	482.063	0.198	0.454
-371.800	-15.684	0.075	0.048
-370.785	-80.251	0.089	0.030
-369.771	639.809	-0.134	-0.343
-368.756	-163.608	-0.155	0.007
-367.742	-200.000	0.004	0.297
-366.727	82.961	0.134	-0.147
-365.712	90.594	0.240	-0.270
-364.698	5.904	-0.202	-0.150
-363.683	-98.180	0.324	0.084
-362.669	135.055	-0.025	-0.033
-361.654	-133.923	0.145	-0.018
-360.639	-107.512	-0.011	-0.002
-359.625	141.738	-0.074	-0.099
-358.610	69.338	0.054	0.056
-357.596	-45.854	-0.230	0.115
-356.581	800.000	0.102	-0.295
-355.566	-108.561	-0.125	0.027
-354.552	178.772	0.055	-0.081
-353.537	25.025	-0.180	0.150
-352.523	125.314	0.095	0.121
-351.508	-92.404	-0.250	-0.071
-350.493	-89.884	-0.140	0.041
-349.479	45.345	0.081	-0.075
-348.464	79.488	-0.147	-0.159
-347.450	122.736	-0.151	-0.190
-346.435	-32.404	0.268	-0.151
-345.420	-111.569	-0.094	-0.019
-344.406	-76.884	-0.315	0.111
-343.391	-125.347	-0.189	-0.029
-342.377	-200.000	-0.049	-0.224
-341.362	-196.677	0.195	-0.001
-340.348	-41.225	0.124	0.065
-339.333	178.025	-0.162	-0.238
-338.318	238.104	0.142	0.237
-337.304	-200.000	-0.015	-0.250
-336.289	275.243	-0.093	-0.167
-335.275	-200.000	0.049	0.222
-334.260	28.045	-0.062	0.052
-333.245	-64.897	-0.118	0.048
-332.231	10.253	0.270	0.207
-331.216	47.305	0.164	-0.154
-330.202	76.105	0.102	-0.109
-329.187	-200.000	-0.008	-0.214
-328.172	-24.147	-0.212	-0.127
-327.158	-137.748	-0.296	0.033
-326.143	156.857	0.082	-0.115
-325.129	-73.889	0.270	-0.099
-324.114	103.594	-0.076	0.090
-323.099	225.276	-0.045	-0.073
-322.085	237.332	0.145	0.243
-321.070	-200.000	-0.004	-0.076
-320.056	31.565	0.210	-0.181
-319.041	255.206	0.122	0.210
-318.026	-200.000	-0.007	-0.094
-317.012	-113.901	-0.235	0.046
-315.997	-38.376	-0.255	0.136
-314.983	800.000	-0.026	-0.077
-313.968	-200.000	0.011	0.124
-312.953	800.000	0.024	0.095
-311.939	-29.268	-0.063	-0.037
-310.924	352.232	-0.158	0.315
-309.910	54.785	-0.192	0.187
-308.895	-96.681	-0.236	-0.063
-307.880	40.717	0.294	-0.266
-306.866	182.485	-0.131	-0.194
-305.851	-144.866	0.249	0.023
-304.837	-109.042	-0.166	0.036
-303.822	52.850	-0.212	-0.203
-302.807	57.518	0.060	0.059
-301.793	800.000	0.021	0.087
-300.778	-200.000	-0.005	0.076
-299.764	138.950	0.056	-0.074
-298.749	-66.292	-0.126	0.050
-297.735	507.190	0.122	0.284
-296.720	299.196	0.115	-0.213
-295.705	40.920	0.329	0.299
-294.691	-149.762	-0.348	0.027
-293.676	230.117	-0.137	0.226
-292.662	-137.098	-0.126	-0.015
-291.647	-1.578	-0.211	-0.149
-290.632	-89.862	-0.258	0.076
-289.618	486.306	0.142	0.325
-288.603	-157.317	0.278	-0.017
-287.589	107.251	0.116	-0.138
-286.574	-200.000	0.037	0.321
-285.559	-200.000	-0.057	0.308
-284.545	108.046	0.114	-0.136
-283.530	-200.000	0.020	0.146
-282.516	347.836	0.168	0.333
-281.501	-20.313	0.286	-0.177
-280.486	-70.255	-0.195	0.074
-279.472	450.278	-0.155	-0.343
-278.457	370.984	-0.100	-0.204
-277.443	-71.621	-0.297	0.112
-276.428	-4.167	-0.038	-0.027
-275.413	442.143	-0.056	0.123
-274.399	84.895	0.158	0.174
-273.384	-45.937	0.173	0.086
-272.370	-200.000	-0.009	-0.093
-271.355	59.965	-0.202	-0.200
-270.340	99.521	-0.102	0.118
-269.326	29.880	-0.113	0.096
-268.311	315.750	-0.080	0.151
-267.297	7.038	0.075	0.056
-266.282	-200.000	-0.010	0.242
-265.267	-38.553	0.237	-0.126
-264.253	-105.856	-0.110	0.025
-263.238	-200.000	-0.005	0.145
-262.224	340.346	0.135	-0.265
-261.209	381.362	0.074	0.152
-260.195	800.000	0.005	0.017
-259.180	-200.000	0.047	0.262
-258.165	406.552	-0.102	-0.216
-257.151	-200.000	0.018	-0.230
-256.136	284.593	0.093	0.168
-255.122	305.898	-0.279	0.521
-254.107	89.301	-0.132	-0.148
-253.092	-46.084	0.476	-0.235
-252.078	361.638	-0.099	-0.200
-251.063	14.526	-0.240	-0.188
-250.049	216.040	-0.142	0.226
-249.034	20.330	0.102	-0.083
-248.019	800.000	-0.096	0.326
-247.005	107.032	-0.270	-0.321
-245.990	-71.194	0.184	0.069
-244.976	160.526	0.057	-0.080
-243.961	800.000	-0.044	0.167
-242.946	48.887	0.091	-0.086
-241.932	-146.459	-0.280	-0.024
-240.917	-20.597	-0.177	-0.109
-239.903	-103.505	0.387	0.091
-238.888	-41.867	0.206	-0.106
-237.873	-77.104	-0.186	0.065
-236.859	800.000	0.042	-0.184
-235.844	27.658	-0.108	0.091
-234.830	800.000	-0.089	0.338
-233.815	38.077	-0.321	0.287
-232.800	25.155	0.236	0.196
-231.786	-200.000	0.003	-0.143
-230.771	800.000	0.031	-0.134
-229.757	-76.485	0.163	0.057
-228.742	-31.206	-0.104	0.059
-227.727	2.835	-0.099	-0.072
-226.713	785.913	0.074	-0.203
-225.698	-160.968	-0.236	-0.012
-224.684	39.204	-0.132	-0.119
-223.669	122.009	-0.126	-0.157
-222.655	-110.314	0.145	0.030
-221.640	-200.000	0.006	0.247
-220.625	-82.220	-0.215	0.070
-219.611	-200.000	-0.001	0.049
-218.596	-150.930	-0.278	0.021
-217.582	-200.000	0.021	-0.092
-216.567	133.701	0.213	0.276
-215.552	-104.291	0.312	0.073
-214.538	-61.731	0.188	-0.079
-213.523	-119.433	-0.277	0.048
-212.509	-200.000	-0.002	-0.344
-211.494	-200.000	-0.009	-0.156
-210.479	-65.551	-0.271	-0.109
-209.465	98.310	0.172	-0.199
-208.450	-28.737	-0.240	0.138
-207.436	-74.141	0.129	-0.047
-206.421	3.095	0.198	-0.144
-205.406	175.039	0.185	0.269
-204.392	-140.784	0.229	-0.024
-203.377	-200.000	-0.018	0.292
-202.363	-200.000	0.013	0.117
-201.348	-151.361	0.252	-0.019
-200.333	-124.281	0.379	-0.059
-199.319	226.432	0.222	-0.361
-198.304	83.149	0.137	-0.149
-197.290	5.872	0.270	-0.200
-196.275	-200.000	0.026	-0.214
-195.260	319.297	-0.050	-0.095
-194.246	-35.969	0.232	-0.126
-193.231	-48.897	0.143	0.069
-192.217	800.000	-0.049	0.184
-191.202	10.605	-0.303	-0.231
-190.187	298.715	-0.036	-0.067
-189.173	-67.042	-0.221	-0.087
-188.158	-200.000	0.010	0.198
-187.144	192.574	0.108	-0.163
-186.129	413.903	-0.032	0.068
-185.114	-151.897	-0.202	-0.015
-184.100	-35.241	-0.082	-0.044
-183.085	36.246	0.170	-0.150
-182.071	-118.118	-0.179	0.032
-181.056	-167.851	0.378	0.015
-180.042	34.037	0.380	-0.331
-179.027	-200.000	-0.020	-0.127
-178.012	417.135	-0.090	-0.192
-176.998	14.642	-0.109	-0.085
-175.983	93.812	-0.231	0.262
-174.969	-200.000	-0.001	-0.124
-173.954	-200.000	-0.000	0.128
-172.939	158.540	0.155	0.215
-171.925	113.516	-0.029	0.035
-170.910	-157.713	0.205	0.012
-169.896	533.998	0.013	-0.031
-168.881	141.067	0.072	-0.095
-167.866	224.586	-0.076	0.123
-166.852	-3.332	-0.095	0.066
-165.837	593.206	0.178	0.439
-164.823	602.452	0.113	-0.282
-163.808	800.000	0.094	-0.271
-162.793	-99.663	-0.054	0.014
-161.779	509.563	0.048	-0.111
-160.764	-78.717	-0.043	-0.015
-159.750	85.372	0.196	0.215
-158.735	642.080	-0.044	0.111
-157.720	-86.690	0.445	-0.136
-156.706	-17.813	-0.229	0.143
-155.691	-200.000	0.007	-0.089
-154.677	99.182	0.178	0.206
-153.662	-114.158	-0.167	0.032
-152.647	-117.244	0.200	-0.036
-151.633	203.574	0.098	-0.152
-150.618	-3.978	-0.082	0.057
-149.604	171.773	-0.178	0.256
-148.589	-200.000	0.000	-0.026
-147.574	800.000	-0.148	0.456
-146.560	-191.299	0.128	-0.001
-145.545	-45.378	-0.413	-0.205
-144.531	-38.526	0.149	-0.079
-143.516	800.000	0.081	-0.290
-142.502	-135.552	0.288	-0.034
-141.487	20.540	-0.102	-0.083
-140.472	-144.717	0.108	-0.010
-139.458	-109.319	0.248	-0.053
-138.443	-71.907	-0.125	-0.046
-137.429	60.908	-0.267	0.264
-136.414	-200.000	0.027	-0.234
-135.399	-45.602	-0.064	0.032
-134.385	-41.660	-0.287	-0.147
-133.370	-107.689	-0.106	-0.023
-132.356	-80.100	0.367	-0.123
-131.341	-162.229	-0.433	0.022
-130.326	-15.240	0.192	-0.123
-129.312	-200.000	0.010	0.177
-128.297	-139.344	-0.263	0.028
-127.283	800.000	-0.083	-0.248
-126.268	0.536	0.172	0.122
-125.253	-23.477	-0.207	-0.124
-124.239	-200.000	0.022	0.206
-123.224	800.000	-0.032	-0.133
-122.210	-200.000	0.003	0.174
