DTS Sentinel unit serial number:	SN413079Multiplexer serial number:	ORYXHardware model number:	OX4-SRSoftware version number:	ORYX F/W v4.00 Oryx Data Collector v3.7.2.0data status	okinstallation	princeton_trtdifferential loss correction	single-endedforward channel	channel 1reverse channel	N/Adate	2019/09/11time	18:40:11forward acquisition time	60.00reverse acquisition time	0.00gamma	496.2192k internal	0.2290k external	0.2290temperature offset calibration	1.0009default loss term (dB/km)	0.3790temperature slope calibration	1.0000multiplexer offset coefficient	1.0000multiplexer slope coefficient	1.0000fibre end	0.00T internal ref (°C)	43.47T ext. ref 1 (°C)	1.21T ext. ref 2 (°C)	35.96length (m)	temperature (°C)	Stokes	anti-Stokes-747.200	-111.265	-0.188	-0.039
-746.185	646.285	-0.169	0.443
-745.171	-49.432	-0.302	0.148
-744.156	-200.000	0.002	0.217
-743.142	-6.654	-0.363	0.253
-742.127	-200.000	-0.038	0.188
-741.112	-200.000	0.049	0.452
-740.098	199.749	-0.108	0.169
-739.083	90.480	-0.056	0.064
-738.069	364.789	-0.172	0.355
-737.054	7.861	0.057	0.044
-736.039	-200.000	-0.029	-0.396
-735.025	366.658	0.099	0.205
-734.010	180.434	0.152	-0.228
-732.996	758.800	0.082	-0.227
-731.981	800.000	-0.082	0.317
-730.966	-33.200	0.097	-0.055
-729.952	261.288	0.110	-0.195
-728.937	-200.000	0.012	0.107
-727.923	-112.663	-0.187	-0.038
-726.908	617.969	-0.056	0.143
-725.894	-120.353	-0.077	0.014
-724.879	-200.000	-0.039	-0.589
-723.864	-53.801	-0.301	0.141
-722.850	-200.000	-0.009	-0.090
-721.835	800.000	-0.082	0.258
-720.821	142.282	-0.061	-0.083
-719.806	-65.468	-0.257	0.106
-718.791	79.855	-0.247	-0.271
-717.777	800.000	-0.059	0.226
-716.762	-170.002	0.422	-0.015
-715.748	-200.000	-0.066	-0.336
-714.733	209.915	0.172	-0.277
-713.718	-189.432	0.198	0.002
-712.704	482.918	-0.154	-0.358
-711.689	-200.000	0.013	-0.226
-710.675	-29.063	0.132	-0.077
-709.660	-200.000	-0.051	-0.396
-708.645	41.289	-0.369	0.341
-707.631	-40.994	-0.166	-0.088
-706.616	191.146	0.031	-0.048
-705.602	-123.829	0.117	-0.019
-704.587	-200.000	0.025	0.350
-703.572	-52.936	-0.050	0.024
-702.558	-200.000	-0.024	-0.202
-701.543	-161.698	-0.185	-0.010
-700.529	-200.000	0.036	-0.319
-699.514	-27.691	-0.143	0.085
-698.499	549.581	0.093	-0.227
-697.485	-86.808	-0.222	-0.070
-696.470	-200.000	0.007	-0.067
-695.456	-78.568	0.167	-0.059
-694.441	-68.472	0.166	0.066
-693.426	253.563	-0.215	-0.376
-692.412	-71.324	-0.243	0.093
-691.397	-107.622	0.356	0.080
-690.383	-86.849	-0.045	0.014
-689.368	-72.600	-0.054	-0.020
-688.354	16.250	0.137	-0.111
-687.339	800.000	0.014	0.045
-686.324	-49.966	-0.386	-0.187
-685.310	2.367	0.303	0.224
-684.295	-90.890	0.243	-0.072
-683.281	-136.494	-0.283	-0.034
-682.266	9.647	-0.147	-0.114
-681.251	-200.000	-0.042	-0.208
-680.237	261.382	-0.079	-0.140
-679.222	-178.660	-0.159	-0.004
-678.208	-58.577	0.019	0.008
-677.193	148.736	0.020	-0.028
-676.178	-186.254	-0.358	-0.005
-675.164	-137.693	0.239	-0.027
-674.149	21.147	-0.179	0.149
-673.135	241.666	-0.097	-0.166
-672.120	-57.847	0.289	-0.129
-671.105	-200.000	-0.020	0.304
-670.091	-200.000	0.027	-0.194
-669.076	48.901	0.142	-0.136
-668.062	247.945	-0.117	-0.202
-667.047	92.666	-0.247	-0.285
-666.032	89.588	-0.051	0.058
-665.018	222.620	0.265	-0.436
-664.003	-60.731	0.125	0.054
-662.989	26.243	0.144	-0.123
-661.974	75.982	0.097	0.105
-660.959	-200.000	0.007	-0.110
-659.945	-42.343	-0.378	-0.197
-658.930	-200.000	-0.007	-0.034
-657.916	279.925	-0.192	0.350
-656.901	191.137	-0.061	0.094
-655.886	-200.000	0.036	-0.291
-654.872	800.000	0.093	-0.325
-653.857	20.022	0.064	0.053
-652.843	290.862	-0.157	-0.291
-651.828	-134.802	0.257	0.032
-650.814	-5.917	0.227	0.158
-649.799	-27.411	0.274	0.163
-648.784	-74.702	-0.398	0.146
-647.770	39.637	-0.215	-0.196
-646.755	22.252	-0.226	-0.188
-645.741	-104.716	-0.200	0.047
-644.726	800.000	-0.078	-0.273
-643.711	-140.810	-0.041	-0.004
-642.697	-142.923	-0.135	-0.013
-641.682	-107.157	0.183	-0.041
-640.668	96.512	-0.201	-0.235
-639.653	69.420	-0.337	0.354
-638.638	-113.874	-0.112	-0.022
-637.624	97.126	-0.084	0.098
-636.609	66.250	0.229	-0.237
-635.595	-200.000	0.010	-0.378
-634.580	800.000	0.074	0.240
-633.565	-200.000	0.011	-0.257
-632.551	-32.953	-0.310	-0.176
-631.536	-108.308	0.095	-0.021
-630.522	467.280	0.100	0.229
-629.507	11.061	-0.079	0.062
-628.492	-54.294	0.161	-0.075
-627.478	389.565	0.078	0.164
-626.463	2.245	0.250	-0.184
-625.449	800.000	0.086	0.295
-624.434	-114.628	-0.233	0.045
-623.419	-94.095	0.059	0.017
-622.405	-4.921	0.124	0.087
-621.390	-200.000	0.076	0.477
-620.376	-200.000	-0.038	0.300
-619.361	81.807	0.156	0.172
-618.346	-139.716	0.358	-0.039
-617.332	-80.189	0.316	-0.108
-616.317	-90.929	0.093	-0.027
-615.303	-45.035	0.168	-0.085
-614.288	-103.573	-0.140	0.033
-613.273	63.819	0.033	0.033
-612.259	-200.000	-0.047	-0.230
-611.244	-4.891	-0.183	-0.128
-610.230	-200.000	0.002	0.144
-609.215	800.000	-0.130	-0.538
-608.201	48.751	-0.308	-0.295
-607.186	159.091	0.151	-0.214
-606.171	-200.000	-0.034	-0.271
-605.157	99.633	-0.080	0.095
-604.142	-126.848	-0.069	0.010
-603.128	-200.000	-0.072	-0.397
-602.113	-164.578	0.337	0.016
-601.098	86.290	0.016	0.018
-600.084	800.000	0.081	-0.235
-599.069	40.464	0.084	0.077
-598.055	18.496	0.175	-0.143
-597.040	-74.582	0.130	0.048
-596.025	160.255	-0.195	0.277
-595.011	-131.563	0.304	-0.041
-593.996	-154.520	-0.131	0.009
-592.982	427.015	0.085	-0.187
-591.967	-200.000	0.067	-0.381
-590.952	-140.913	0.392	0.041
-589.938	333.144	-0.048	0.095
-588.923	513.592	-0.109	-0.259
-587.909	800.000	0.094	-0.333
-586.894	-200.000	0.009	-0.136
-585.879	-200.000	0.023	0.451
-584.865	-85.518	-0.296	0.094
-583.850	17.031	-0.228	-0.184
-582.836	578.321	-0.064	0.161
-581.821	117.626	-0.212	-0.266
-580.806	-200.000	0.089	0.430
-579.792	20.644	0.110	-0.091
-578.777	-46.742	0.199	0.099
-577.763	-200.000	-0.025	-0.119
-576.748	109.582	0.207	-0.253
-575.733	-114.673	-0.342	-0.067
-574.719	-195.762	0.289	0.002
-573.704	-200.000	-0.015	0.182
-572.690	800.000	0.101	0.438
-571.675	2.557	0.146	-0.108
-570.661	21.202	-0.167	0.138
-569.646	24.240	-0.094	-0.079
-568.631	-148.230	0.322	0.027
-567.617	-115.767	-0.211	-0.040
-566.602	-148.237	-0.261	-0.022
-565.588	-66.769	-0.084	0.034
-564.573	522.098	0.093	-0.222
-563.558	-200.000	-0.068	0.348
-562.544	424.471	-0.054	0.119
-561.529	-8.057	0.397	0.272
-560.515	-200.000	0.001	-0.005
-559.500	-25.165	-0.393	-0.237
-558.485	-78.278	-0.081	-0.028
-557.471	800.000	-0.054	-0.218
-556.456	800.000	0.045	0.140
-555.442	42.040	0.111	-0.102
-554.427	28.406	0.215	-0.185
-553.412	-50.801	0.170	0.081
-552.398	276.006	0.095	-0.171
-551.383	8.536	-0.128	0.098
-550.369	87.311	0.165	-0.186
-549.354	-44.302	-0.158	0.080
-548.339	800.000	-0.029	0.083
-547.325	4.906	0.122	-0.091
-546.310	108.816	-0.076	0.092
-545.296	200.119	-0.103	0.161
-544.281	800.000	0.082	0.251
-543.266	63.318	0.105	-0.107
-542.252	-200.000	-0.003	0.178
-541.237	-58.730	0.013	-0.006
-540.223	-194.555	0.134	0.001
-539.208	0.547	0.198	0.144
-538.193	-44.709	0.177	0.090
-537.179	287.214	-0.166	0.305
-536.164	-51.163	-0.421	-0.201
-535.150	117.294	0.180	-0.225
-534.135	800.000	0.072	-0.275
-533.121	800.000	-0.034	0.138
-532.106	762.831	0.079	-0.218
-531.091	-16.662	-0.404	0.260
-530.077	104.128	0.066	0.079
-529.062	128.519	0.111	0.144
-528.048	800.000	-0.079	-0.222
-527.033	527.783	-0.152	-0.363
-526.018	-66.851	0.116	0.047
-525.004	-200.000	-0.034	0.154
-523.989	608.400	0.139	-0.353
-522.975	-200.000	-0.048	-0.218
-521.960	-19.540	-0.264	-0.166
-520.945	142.354	-0.075	0.101
-519.931	77.650	0.133	0.144
-518.916	505.240	-0.062	0.146
-517.902	-10.452	-0.350	0.236
-516.887	-35.436	0.252	0.139
-515.872	-119.529	-0.139	0.025
-514.858	800.000	0.082	0.297
-513.843	-73.369	-0.195	0.072
-512.829	69.771	-0.240	-0.251
-511.814	-22.522	0.286	-0.176
-510.799	-162.219	0.366	-0.019
-509.785	-11.311	-0.322	0.215
-508.770	103.213	-0.029	0.035
-507.756	800.000	-0.076	-0.221
-506.741	-28.068	-0.409	0.240
-505.726	-116.395	-0.088	-0.016
-504.712	62.957	0.043	-0.043
-503.697	-155.557	-0.317	-0.021
-502.683	198.094	0.090	-0.140
-501.668	-200.000	-0.006	0.255
-500.653	-3.754	0.060	0.042
-499.639	68.457	0.246	-0.256
-498.624	381.149	-0.202	-0.421
-497.610	200.161	-0.054	-0.084
-496.595	-105.021	0.290	0.067
-495.581	102.531	-0.136	-0.161
-494.566	136.931	-0.139	0.184
-493.551	39.691	-0.029	0.027
-492.537	-68.847	0.309	0.121
-491.522	-94.510	0.269	0.074
-490.508	-139.505	0.250	0.027
-489.493	-1.609	0.090	-0.064
-488.478	-105.602	0.078	-0.018
-487.464	414.407	-0.016	0.034
-486.449	20.529	0.072	-0.059
-485.435	-50.574	-0.046	0.022
-484.420	-100.532	0.036	-0.009
-483.405	90.796	0.087	0.099
-482.391	800.000	0.159	0.586
-481.376	-200.000	0.048	0.407
-480.362	36.155	-0.264	-0.236
-479.347	-200.000	-0.007	-0.085
-478.332	-71.155	0.268	-0.102
-477.318	-18.453	0.126	0.080
-476.303	-125.790	0.060	0.009
-475.289	756.823	0.033	-0.089
-474.274	-85.704	-0.068	0.022
-473.259	-124.148	-0.330	-0.052
-472.245	-3.855	-0.184	-0.129
-471.230	-79.099	-0.297	-0.102
-470.216	-200.000	-0.018	-0.222
-469.201	-200.000	-0.021	-0.100
-468.186	-200.000	0.023	-0.312
-467.172	800.000	0.100	-0.409
-466.157	-90.238	-0.056	0.016
-465.143	-200.000	-0.001	-0.124
-464.128	-130.278	0.170	-0.023
-463.113	-156.424	-0.402	0.025
-462.099	105.366	-0.089	-0.106
-461.084	32.261	0.164	0.143
-460.070	14.929	-0.150	-0.119
-459.055	183.637	0.095	-0.142
-458.040	800.000	0.051	0.153
-457.026	22.645	-0.126	-0.104
-456.011	50.131	0.083	-0.080
-454.997	79.283	0.082	0.089
-453.982	-200.000	-0.009	0.267
-452.968	63.716	0.148	0.150
-451.953	-122.477	-0.382	0.063
-450.938	-64.076	-0.162	-0.067
-449.924	140.521	-0.319	-0.427
-448.909	-200.000	-0.026	0.353
-447.895	308.012	-0.129	0.244
-446.880	-53.284	0.139	-0.065
-445.865	-200.000	-0.027	-0.200
-444.851	142.884	0.254	0.342
-443.836	141.420	0.176	-0.235
-442.822	-190.099	0.128	-0.001
-441.807	-200.000	0.013	0.431
-440.792	-200.000	0.003	0.143
-439.778	199.607	0.127	0.197
-438.763	358.894	0.191	-0.387
-437.749	45.962	-0.279	-0.261
-436.734	-101.125	-0.072	-0.018
-435.719	-140.730	-0.097	-0.010
-434.705	139.272	-0.186	-0.247
-433.690	800.000	-0.088	-0.376
-432.676	800.000	0.064	0.198
-431.661	-200.000	-0.046	-0.386
-430.646	225.515	0.093	0.152
-429.632	21.079	0.076	0.062
-428.617	-62.143	0.229	0.097
-427.603	-200.000	0.009	-0.193
-426.588	116.168	0.130	-0.161
-425.573	551.860	0.105	-0.255
-424.559	-13.651	0.231	0.151
-423.544	-151.315	0.222	-0.017
-422.530	-168.895	-0.241	-0.009
-421.515	-95.332	-0.096	0.026
-420.500	-31.863	-0.314	-0.178
-419.486	-54.741	0.276	-0.126
-418.471	-117.532	-0.145	-0.027
-417.457	461.280	-0.111	-0.250
-416.442	-134.956	0.222	-0.027
-415.428	-139.560	0.149	-0.016
-414.413	-65.527	0.170	-0.069
-413.398	-200.000	0.079	0.391
-412.384	238.618	-0.083	0.140
-411.369	-161.508	-0.394	0.020
-410.355	256.599	0.021	-0.036
-409.340	111.348	-0.166	0.202
-408.325	12.872	0.038	0.030
-407.311	-14.347	0.112	-0.073
-406.296	165.624	-0.037	-0.053
-405.282	-200.000	-0.069	-0.324
-404.267	-54.848	-0.167	0.076
-403.252	-78.959	-0.089	0.031
-402.238	-143.759	-0.211	0.020
-401.223	-127.747	-0.101	-0.015
-400.209	-200.000	0.009	0.262
-399.194	37.726	0.175	-0.157
-398.179	-72.000	0.258	-0.097
-397.165	-16.406	-0.389	-0.249
-396.150	-111.875	0.105	-0.021
-395.136	149.065	0.082	-0.113
-394.121	216.513	0.117	-0.187
-393.106	586.160	0.057	-0.142
-392.092	-19.077	0.074	-0.046
-391.077	-33.624	0.054	-0.030
-390.063	-137.443	-0.294	0.034
-389.048	119.549	0.029	-0.036
-388.033	222.508	-0.066	-0.108
-387.019	43.506	-0.358	-0.330
-386.004	33.261	-0.121	-0.106
-384.990	800.000	-0.051	-0.195
-383.975	-18.105	0.133	-0.084
-382.960	-187.515	-0.463	-0.006
-381.946	-200.000	-0.068	0.367
-380.931	-200.000	-0.013	0.178
-379.917	166.923	0.164	0.235
-378.902	287.395	0.100	0.182
-377.888	253.715	0.020	0.035
-376.873	-118.324	-0.421	0.076
-375.858	-137.546	0.294	0.033
-374.844	256.400	-0.100	0.174
-373.829	-57.643	0.070	0.031
-372.815	-11.482	-0.228	0.151
-371.800	621.271	-0.086	0.219
-370.785	-145.162	-0.018	-0.002
-369.771	-92.882	-0.257	-0.072
-368.756	800.000	0.052	-0.216
-367.742	335.413	-0.076	0.149
-366.727	13.595	-0.176	0.138
-365.712	122.877	-0.059	0.075
-364.698	800.000	0.051	0.199
-363.683	-48.823	0.072	0.035
-362.669	-200.000	0.009	-0.220
-361.654	85.650	-0.089	0.098
-360.639	-123.696	-0.145	0.023
-359.625	800.000	0.112	-0.414
-358.610	168.997	-0.184	-0.265
-357.596	-147.686	-0.475	0.040
-356.581	-71.067	-0.331	0.125
-355.566	-200.000	-0.016	0.283
-354.552	-6.100	0.270	-0.187
-353.537	51.564	-0.310	-0.298
-352.523	-192.703	0.144	0.001
-351.508	-41.627	-0.211	-0.109
-350.493	800.000	0.093	0.268
-349.479	-92.195	-0.213	-0.061
-348.464	542.851	-0.078	0.187
-347.450	-200.000	0.021	-0.280
-346.435	253.559	-0.033	-0.056
-345.420	-200.000	-0.025	0.152
-344.406	-200.000	-0.007	0.195
-343.391	226.020	0.043	0.070
-342.377	-200.000	-0.134	-0.000
-341.362	-200.000	-0.008	0.055
-340.348	800.000	0.088	-0.380
-339.333	-147.149	-0.250	-0.021
-338.318	-48.908	0.221	0.107
-337.304	13.139	0.154	0.120
-336.289	800.000	0.053	0.161
-335.275	-12.293	-0.189	-0.125
-334.260	800.000	0.065	0.212
-333.245	-200.000	-0.026	0.119
-332.231	800.000	0.051	-0.149
-331.216	93.450	-0.129	-0.147
-330.202	40.376	0.160	0.145
-329.187	101.762	-0.132	-0.156
-328.172	-63.300	0.239	0.099
-327.158	800.000	0.044	0.177
-326.143	-104.514	0.231	0.054
-325.129	-193.121	-0.087	0.001
-324.114	197.634	0.106	-0.163
-323.099	88.632	0.179	-0.200
-322.085	61.103	-0.084	0.084
-321.070	39.934	-0.167	0.151
-320.056	-200.000	-0.028	-0.169
-319.041	212.166	0.205	0.326
-318.026	-109.937	0.030	0.006
-317.012	-72.716	0.180	0.067
-315.997	-200.000	-0.025	0.204
-314.983	-115.983	0.226	0.042
-313.968	536.830	-0.051	0.122
-312.953	-49.078	0.163	0.079
-311.939	162.801	-0.164	0.232
-310.924	-148.718	0.199	-0.016
-309.910	-29.243	0.170	-0.098
-308.895	-200.000	0.044	0.297
-307.880	-200.000	0.001	-0.060
-306.866	1.675	-0.139	0.101
-305.851	99.666	-0.354	0.412
-304.837	-9.468	-0.133	0.089
-303.822	430.108	-0.186	0.404
-302.807	-79.438	0.248	-0.085
-301.793	-126.103	0.492	-0.074
-300.778	-102.363	0.173	0.042
-299.764	-200.000	0.015	0.184
-298.749	0.306	-0.359	-0.258
-297.735	-200.000	0.017	-0.109
-296.720	38.613	-0.041	0.036
-295.705	-80.225	-0.128	0.043
-294.691	35.707	-0.210	-0.186
-293.676	-24.879	0.212	-0.127
-292.662	-200.000	-0.004	-0.270
-291.647	537.552	-0.032	0.077
-290.632	-200.000	-0.011	-0.053
-289.618	-40.514	0.120	0.063
-288.603	-200.000	0.003	-0.056
-287.589	-109.028	0.177	0.038
-286.574	70.531	0.148	-0.155
-285.559	110.512	0.276	-0.334
-284.545	39.990	0.203	-0.184
-283.530	-200.000	-0.044	0.232
-282.516	-200.000	0.045	-0.235
-281.501	-156.844	0.286	-0.018
-280.486	800.000	0.080	-0.224
-279.472	-75.370	0.435	0.156
-278.457	282.561	-0.141	-0.255
-277.443	408.165	0.078	0.166
-276.428	42.268	0.205	0.188
-275.413	83.316	-0.098	0.108
-274.399	125.960	-0.201	-0.256
-273.384	204.465	0.236	-0.367
-272.370	800.000	-0.019	-0.058
-271.355	-91.012	-0.029	0.008
-270.340	92.502	-0.115	-0.130
-269.326	120.324	0.079	-0.099
-268.311	10.760	-0.297	-0.228
-267.297	-47.697	0.184	-0.090
-266.282	214.339	0.050	0.079
-265.267	-55.534	0.237	0.107
-264.253	-12.694	-0.127	0.083
-263.238	-117.695	0.262	0.048
-262.224	-23.700	0.309	-0.186
-261.209	87.531	-0.156	0.173
-260.195	-111.527	0.163	0.033
-259.180	-106.444	0.149	0.034
-258.165	-13.608	0.218	-0.142
-257.151	94.889	-0.213	0.244
-256.136	30.163	0.134	0.115
-255.122	-140.747	-0.253	0.026
-254.107	-89.932	0.017	-0.005
-253.092	-158.413	-0.171	0.010
-252.078	517.735	-0.067	-0.158
-251.063	13.757	0.078	-0.061
-250.049	-160.145	0.123	0.007
-249.034	-161.447	-0.393	-0.020
-248.019	-28.110	-0.184	0.107
-247.005	-200.000	-0.011	-0.093
-245.990	51.275	0.124	0.119
-244.976	-170.536	-0.161	0.006
-243.961	-61.441	-0.367	-0.155
-242.946	-156.941	0.236	0.015
-241.932	96.650	0.195	0.224
-240.917	-35.227	0.193	-0.105
-239.903	-128.685	-0.154	0.022
-238.888	-130.202	-0.164	0.022
-237.873	106.610	0.119	-0.142
-236.859	552.884	-0.177	0.428
-235.844	-9.945	0.160	-0.107
-234.830	80.787	0.099	-0.108
-233.815	-185.675	-0.321	-0.005
-232.800	-93.376	0.208	0.058
-231.786	-162.161	-0.262	-0.013
-230.771	309.487	0.022	-0.041
-229.757	800.000	-0.014	-0.053
-228.742	-104.033	0.477	-0.112
-227.727	800.000	-0.141	-0.498
-226.713	-57.230	0.066	0.029
-225.698	-200.000	-0.012	0.138
-224.684	110.046	-0.103	0.124
-223.669	-82.847	0.372	0.121
-222.655	-118.044	-0.191	-0.034
-221.640	47.042	-0.018	0.016
-220.625	418.084	-0.117	-0.252
-219.611	-76.514	0.113	0.040
-218.596	58.723	-0.103	0.101
-217.582	-88.930	-0.126	0.037
-216.567	61.998	-0.141	-0.141
-215.552	-83.662	-0.186	-0.060
-214.538	152.123	-0.129	0.177
-213.523	313.092	0.056	0.105
-212.509	-200.000	0.099	0.513
-211.494	-164.795	0.055	-0.002
-210.479	-97.364	-0.106	0.028
-209.465	-200.000	0.002	0.092
-208.450	-7.800	0.311	-0.210
-207.436	-37.823	-0.113	0.060
-206.421	35.078	0.193	-0.169
-205.406	-200.000	0.018	0.078
-204.392	21.682	0.341	0.278
-203.377	-35.579	0.105	-0.057
-202.363	-144.951	-0.305	-0.028
-201.348	19.694	0.145	-0.117
-200.333	238.988	0.206	-0.344
-199.319	415.176	0.121	0.258
-198.304	50.732	0.281	0.267
-197.290	-198.793	-0.340	-0.002
-196.275	107.429	-0.081	-0.097
-195.260	34.524	0.080	0.070
-194.246	-200.000	0.045	-0.240
-193.231	284.983	0.055	0.099
-192.217	32.002	-0.115	0.100
-191.202	56.754	-0.099	0.097
-190.187	-123.029	0.373	-0.060
-189.173	30.551	-0.217	0.186
-188.158	-200.000	0.028	0.253
-187.144	411.823	-0.044	0.094
-186.129	81.361	0.072	0.078
-185.114	-50.773	0.480	0.226
-184.100	-101.900	0.121	-0.029
-183.085	-102.123	-0.248	0.060
-182.071	-200.000	0.049	0.217
-181.056	38.440	-0.220	0.196
-180.042	-200.000	-0.004	0.084
-179.027	-32.785	-0.169	0.094
-178.012	-48.308	0.130	0.063
-176.998	-80.921	-0.196	0.065
-175.983	-115.047	0.254	0.048
-174.969	298.951	0.059	-0.109
-173.954	213.203	-0.070	0.111
-172.939	-23.291	-0.212	0.128
-171.925	800.000	-0.067	-0.274
-170.910	161.037	0.063	0.088
-169.896	-200.000	0.006	0.046
-168.881	152.777	-0.190	0.260
-167.866	-200.000	-0.044	0.265
-166.852	-43.763	0.320	0.161
-165.837	-200.000	-0.010	-0.116
-164.823	-166.589	0.206	-0.009
-163.808	-83.080	0.202	-0.065
-162.793	-125.841	-0.146	-0.022
-161.779	31.974	0.332	-0.287
-160.764	-78.212	-0.115	-0.039
-159.750	380.259	-0.091	0.188
-158.735	-200.000	0.029	0.154
-157.720	-200.000	0.046	0.217
-156.706	280.722	0.046	-0.082
-155.691	784.931	0.043	0.117
-154.677	-14.077	-0.232	-0.150
-153.662	-152.049	-0.334	0.024
-152.647	-28.200	0.330	0.191
-151.633	800.000	-0.111	0.338
-150.618	27.780	0.250	-0.211
-149.604	34.267	0.053	0.046
-148.589	-200.000	-0.080	0.599
-147.574	-200.000	0.052	0.259
-146.560	-75.963	0.029	-0.010
-145.545	-37.772	0.017	0.009
-144.531	-116.215	0.223	0.041
-143.516	17.086	-0.164	0.130
-142.502	26.562	0.116	0.097
-141.487	-128.496	0.285	-0.040
-140.472	244.154	-0.076	-0.128
-139.458	800.000	0.058	0.236
-138.443	-200.000	-0.083	0.417
-137.429	-172.001	-0.215	-0.007
-136.414	-15.273	-0.184	-0.118
-135.399	29.443	0.217	-0.184
-134.385	-57.386	-0.304	-0.134
-133.370	16.846	0.180	0.143
-132.356	-70.026	-0.099	-0.038
-131.341	176.854	-0.160	-0.232
-130.326	733.907	-0.050	0.133
-129.312	-181.430	0.432	-0.008
-128.297	-167.754	-0.318	-0.013
-127.283	-200.000	0.044	-0.211
-126.268	71.117	-0.118	0.122
-125.253	-200.000	0.056	-0.253
-124.239	-118.885	-0.182	-0.032
-123.224	-200.000	-0.083	-0.406
-122.210	3.642	-0.086	-0.063
-121.195	800.000	0.057	-0.174
