DTS Sentinel unit serial number:	SN413079Multiplexer serial number:	ORYXHardware model number:	OX4-SRSoftware version number:	ORYX F/W v4.00 Oryx Data Collector v3.7.2.0data status	okinstallation	princeton_trtdifferential loss correction	single-endedforward channel	channel 1reverse channel	N/Adate	2019/09/15time	20:46:35forward acquisition time	60.00reverse acquisition time	0.00gamma	496.2192k internal	0.2326k external	0.2326temperature offset calibration	0.9958default loss term (dB/km)	0.3790temperature slope calibration	1.0000multiplexer offset coefficient	1.0000multiplexer slope coefficient	1.0000fibre end	0.00T internal ref (°C)	32.48T ext. ref 1 (°C)	7.95T ext. ref 2 (°C)	24.50length (m)	temperature (°C)	Stokes	anti-Stokes-747.200	-120.038	-0.198	-0.034
-746.185	428.643	-0.128	0.280
-745.171	47.016	0.105	0.099
-744.156	352.275	0.032	0.063
-743.142	-29.280	0.070	-0.040
-742.127	-39.624	-0.483	-0.255
-741.112	650.015	0.055	0.143
-740.098	-200.000	0.052	0.365
-739.083	83.067	0.295	0.324
-738.069	72.636	-0.082	0.086
-737.054	-200.000	0.002	-0.178
-736.039	800.000	0.022	0.087
-735.025	213.451	0.110	0.175
-734.010	-114.700	-0.290	-0.056
-732.996	256.125	0.091	0.158
-731.981	-95.272	-0.207	-0.056
-730.966	-200.000	0.043	0.211
-729.952	47.801	-0.074	0.069
-728.937	-24.772	0.048	-0.029
-727.923	-200.000	-0.026	-0.296
-726.908	-200.000	-0.007	-0.160
-725.894	-57.026	-0.227	-0.101
-724.879	-200.000	0.004	-0.034
-723.864	-73.338	-0.377	0.139
-722.850	87.646	0.055	-0.061
-721.835	-18.100	0.183	-0.115
-720.821	55.774	-0.134	-0.131
-719.806	595.638	0.195	0.487
-718.791	-200.000	-0.008	0.148
-717.777	-185.942	-0.033	-0.000
-716.762	195.633	0.192	-0.294
-715.748	395.881	-0.037	-0.077
-714.733	-62.470	0.175	-0.073
-713.718	453.743	0.082	-0.182
-712.704	-168.468	-0.278	-0.011
-711.689	305.150	-0.161	0.300
-710.675	-28.591	0.251	-0.146
-709.660	-200.000	0.006	0.205
-708.645	-200.000	-0.009	-0.097
-707.631	-146.848	0.468	0.041
-706.616	168.626	-0.068	-0.098
-705.602	-200.000	-0.046	-0.230
-704.587	-200.000	0.009	-0.047
-703.572	-200.000	-0.034	-0.424
-702.558	-200.000	0.013	-0.408
-701.543	108.219	-0.217	0.261
-700.529	67.535	-0.132	-0.135
-699.514	64.201	0.070	-0.071
-698.499	66.104	0.141	-0.144
-697.485	800.000	-0.124	-0.437
-696.470	588.041	0.108	-0.267
-695.456	194.612	-0.138	-0.210
-694.441	416.092	-0.101	-0.216
-693.426	-46.822	-0.112	0.055
-692.412	77.064	0.179	-0.192
-691.397	-30.104	0.191	-0.109
-690.383	266.942	-0.033	0.058
-689.368	-15.843	-0.229	-0.147
-688.354	-131.608	0.172	0.023
-687.339	25.733	-0.347	0.291
-686.324	466.247	0.100	0.226
-685.310	-34.626	-0.038	-0.021
-684.295	-200.000	0.008	0.168
-683.281	-53.000	0.192	-0.089
-682.266	-38.732	-0.297	-0.157
-681.251	-56.843	-0.327	-0.146
-680.237	-200.000	0.030	-0.255
-679.222	-161.865	-0.462	0.024
-678.208	-200.000	-0.029	0.472
-677.193	-200.000	0.011	-0.195
-676.178	-200.000	-0.010	-0.226
-675.164	161.340	-0.189	0.266
-674.149	141.632	-0.121	-0.161
-673.135	-73.981	-0.190	0.069
-672.120	1.193	-0.164	-0.118
-671.105	-100.127	0.128	-0.032
-670.091	177.393	-0.132	-0.193
-669.076	-0.166	-0.124	0.089
-668.062	-153.066	0.302	0.021
-667.047	53.154	-0.145	0.140
-666.032	412.776	0.060	-0.127
-665.018	-200.000	0.057	0.392
-664.003	-93.288	0.141	0.039
-662.989	589.362	-0.082	-0.203
-661.974	-19.472	-0.209	-0.130
-660.959	-69.380	0.082	0.032
-659.945	-200.000	-0.036	0.281
-658.930	800.000	0.087	-0.285
-657.916	80.428	-0.188	0.204
-656.901	-200.000	-0.001	-0.101
-655.886	2.451	0.278	-0.202
-654.872	800.000	-0.006	0.021
-653.857	-162.101	-0.204	-0.010
-652.843	20.764	-0.106	0.087
-651.828	-72.387	0.160	0.060
-650.814	-138.076	-0.317	0.035
-649.799	-67.752	0.040	0.016
-648.784	-156.533	-0.306	0.019
-647.770	463.815	-0.065	0.145
-646.755	-93.614	-0.210	0.058
-645.741	467.189	0.028	-0.064
-644.726	43.150	-0.117	-0.108
-643.711	141.162	-0.031	-0.041
-642.697	-65.660	-0.138	-0.056
-641.682	1.077	0.076	-0.055
-640.668	41.687	0.228	0.208
-639.653	35.514	0.074	0.065
-638.638	-200.000	-0.034	-0.470
-637.624	800.000	-0.007	-0.029
-636.609	168.630	0.135	-0.193
-635.595	800.000	0.035	-0.151
-634.580	775.120	-0.087	-0.240
-633.565	-200.000	0.043	-0.373
-632.551	-27.416	-0.190	-0.111
-631.536	264.092	0.182	-0.319
-630.522	81.429	0.199	-0.216
-629.507	-200.000	-0.069	-0.348
-628.492	470.632	0.092	-0.207
-627.478	-79.809	0.195	0.066
-626.463	612.296	-0.049	-0.123
-625.449	-200.000	-0.007	-0.181
-624.434	73.963	-0.275	-0.290
-623.419	315.760	0.074	-0.140
-622.405	-96.120	-0.134	-0.036
-621.390	800.000	0.106	-0.342
-620.376	257.201	-0.063	0.109
-619.361	-36.483	-0.205	0.111
-618.346	126.868	-0.020	0.025
-617.332	48.766	-0.090	0.085
-616.317	-30.709	0.113	0.064
-615.303	-151.388	-0.364	-0.027
-614.288	-200.000	-0.022	0.134
-613.273	559.731	-0.229	-0.554
-612.259	-149.809	-0.097	-0.008
-611.244	-122.264	-0.239	-0.039
-610.230	423.121	0.189	-0.406
-609.215	-147.793	-0.521	0.044
-608.201	78.506	-0.294	-0.315
-607.186	-15.439	0.218	-0.139
-606.171	-200.000	0.055	0.519
-605.157	141.819	0.058	-0.077
-604.142	78.110	-0.030	-0.032
-603.128	287.017	0.011	0.019
-602.113	-138.866	0.559	-0.061
-601.098	-172.882	-0.306	-0.010
-600.084	-200.000	-0.045	-0.212
-599.069	-200.000	0.019	-0.273
-598.055	-81.590	0.271	-0.089
-597.040	-6.281	-0.243	-0.166
-596.025	800.000	0.058	-0.171
-595.011	18.049	-0.017	-0.014
-593.996	391.765	0.031	-0.065
-592.982	800.000	0.057	-0.187
-591.967	-104.506	-0.178	-0.041
-590.952	93.132	-0.037	0.042
-589.938	192.493	0.196	-0.296
-588.923	-196.493	-0.115	-0.001
-587.909	-200.000	-0.009	-0.059
-586.894	380.119	0.100	-0.206
-585.879	-80.213	0.230	-0.077
-584.865	-76.570	0.115	-0.041
-583.850	-34.723	0.247	-0.135
-582.836	-162.892	0.238	-0.012
-581.821	-80.447	0.149	0.050
-580.806	-200.000	-0.051	-0.256
-579.792	-104.908	-0.161	0.037
-578.777	752.978	0.081	-0.219
-577.763	-200.000	0.012	-0.220
-576.748	-100.782	0.143	-0.035
-575.733	-200.000	0.026	0.131
-574.719	51.744	-0.056	0.053
-573.704	-178.784	0.242	-0.006
-572.690	-116.884	-0.347	0.064
-571.675	-50.476	0.417	-0.197
-570.661	-200.000	0.002	-0.025
-569.646	-40.451	-0.226	-0.117
-568.631	-200.000	0.033	-0.194
-567.617	-200.000	-0.010	-0.283
-566.602	-50.788	-0.113	-0.053
-565.588	-200.000	0.015	-0.079
-564.573	-200.000	0.044	0.518
-563.558	57.432	0.211	0.207
-562.544	-38.971	-0.355	-0.187
-561.529	800.000	-0.016	-0.070
-560.515	-125.504	0.232	0.035
-559.500	-76.794	-0.223	0.078
-558.485	-82.410	0.420	-0.136
-557.471	800.000	-0.037	-0.145
-556.456	-72.749	-0.292	0.108
-555.442	-200.000	0.005	-0.242
-554.427	-200.000	-0.017	0.225
-553.412	467.297	0.159	-0.357
-552.398	483.621	0.015	0.034
-551.383	-200.000	-0.019	0.272
-550.369	334.514	0.087	0.169
-549.354	252.226	0.123	0.210
-548.339	219.407	0.405	0.649
-547.325	-96.595	-0.163	0.043
-546.310	51.721	-0.130	-0.124
-545.296	32.030	-0.118	-0.102
-544.281	-76.295	0.075	-0.026
-543.266	-167.672	0.048	0.002
-542.252	800.000	0.090	-0.313
-541.237	468.568	0.051	0.114
-540.223	-138.564	0.233	-0.026
-539.208	194.205	0.031	-0.046
-538.193	37.888	-0.154	-0.137
-537.179	-85.605	-0.343	0.107
-536.164	-67.345	0.272	-0.107
-535.150	-80.016	-0.087	0.029
-534.135	95.946	-0.303	0.346
-533.121	52.492	-0.032	-0.030
-532.106	78.759	-0.104	-0.111
-531.091	-72.147	0.229	-0.085
-530.077	473.640	0.067	0.152
-529.062	800.000	-0.080	0.329
-528.048	-200.000	0.032	0.165
-527.033	-83.380	-0.109	0.035
-526.018	800.000	-0.071	0.254
-525.004	381.858	0.037	-0.075
-523.989	16.069	-0.174	-0.137
-522.975	64.383	-0.215	-0.216
-521.960	800.000	-0.064	0.236
-520.945	125.455	0.162	0.204
-519.931	-23.656	-0.170	0.102
-518.916	-5.439	-0.189	-0.130
-517.902	-200.000	0.048	-0.277
-516.887	-57.198	0.240	0.106
-515.872	-25.267	-0.255	-0.151
-514.858	-9.397	-0.157	0.105
-513.843	800.000	0.019	-0.071
-512.829	-45.048	0.180	0.089
-511.814	-145.869	0.302	0.027
-510.799	667.436	-0.209	-0.540
-509.785	-200.000	0.026	-0.323
-508.770	-200.000	0.063	0.357
-507.756	8.174	0.369	0.277
-506.741	800.000	-0.083	-0.354
-505.726	-56.295	0.113	-0.050
-504.712	3.060	-0.140	-0.101
-503.697	189.056	0.065	-0.097
-502.683	13.368	-0.167	0.130
-501.668	210.053	-0.213	0.334
-500.653	316.677	0.086	-0.163
-499.639	637.185	-0.090	0.228
-498.624	-200.000	0.023	-0.279
-497.610	490.449	0.108	0.246
-496.595	800.000	-0.103	0.286
-495.581	174.008	0.202	-0.292
-494.566	-23.971	-0.227	0.136
-493.551	-85.851	0.066	-0.020
-492.537	450.378	-0.073	0.162
-491.522	800.000	-0.178	-0.524
-490.508	-200.000	0.078	0.346
-489.493	800.000	-0.124	0.342
-488.478	169.678	-0.043	-0.061
-487.464	-200.000	-0.013	-0.177
-486.449	-6.963	-0.124	-0.084
-485.435	800.000	-0.068	0.196
-484.420	136.789	0.151	-0.196
-483.405	3.238	0.201	0.146
-482.391	-170.754	-0.452	0.016
-481.376	-200.000	-0.006	-0.104
-480.362	361.492	-0.184	-0.369
-479.347	-50.973	-0.341	0.160
-478.332	47.614	-0.049	-0.045
-477.318	-142.278	0.377	-0.037
-476.303	-200.000	0.023	0.169
-475.289	15.636	0.277	-0.217
-474.274	-31.043	0.095	0.053
-473.259	800.000	-0.066	0.189
-472.245	-200.000	0.067	0.456
-471.230	187.628	0.058	-0.086
-470.216	800.000	-0.121	0.407
-469.201	-51.812	0.402	-0.187
-468.186	-98.140	0.275	0.071
-467.172	579.391	-0.184	-0.449
-466.157	800.000	0.083	-0.256
-465.143	-26.466	0.132	0.077
-464.128	430.764	0.132	-0.286
-463.113	-38.491	0.038	-0.020
-462.099	-200.000	-0.008	0.174
-461.084	-115.608	-0.294	0.055
-460.070	6.821	-0.171	0.127
-459.055	-200.000	0.004	-0.105
-458.040	-115.389	0.291	0.055
-457.026	-52.611	-0.083	-0.038
-456.011	-200.000	-0.023	-0.170
-454.997	12.518	-0.108	0.083
-453.982	341.903	0.184	0.359
-452.968	326.718	-0.091	0.174
-451.953	426.053	-0.174	0.373
-450.938	-200.000	-0.009	-0.269
-449.924	37.044	0.213	-0.188
-448.909	51.105	-0.164	-0.155
-447.895	153.169	0.166	0.226
-446.880	302.024	0.119	-0.220
-445.865	-200.000	0.013	-0.426
-444.851	4.587	0.123	-0.090
-443.836	-13.342	0.159	-0.103
-442.822	-42.158	-0.086	0.044
-441.807	-6.211	-0.239	0.163
-440.792	-10.328	0.225	0.149
-439.778	800.000	0.033	0.138
-438.763	-8.937	0.027	-0.018
-437.749	-170.404	0.376	-0.013
-436.734	-147.196	-0.084	0.007
-435.719	471.467	-0.069	-0.156
-434.705	699.524	-0.184	-0.483
-433.690	-200.000	0.020	-0.099
-432.676	-49.347	-0.166	0.079
-431.661	235.284	-0.166	0.273
-430.646	-200.000	-0.019	-0.211
-429.632	33.379	-0.235	0.204
-428.617	38.210	0.224	0.199
-427.603	-32.727	-0.282	-0.156
-426.588	39.511	-0.374	0.334
-425.573	-42.940	-0.182	-0.092
-424.559	-89.597	-0.119	-0.035
-423.544	-200.000	0.029	0.132
-422.530	-162.631	0.102	0.005
-421.515	-25.147	-0.230	0.136
-420.500	-138.316	-0.175	0.019
-419.486	-63.441	0.207	0.085
-418.471	788.529	-0.058	0.159
-417.457	139.157	0.159	-0.209
-416.442	-70.976	0.091	-0.034
-415.428	-109.735	-0.106	-0.022
-414.413	451.056	0.151	-0.332
-413.398	-116.957	0.132	-0.024
-412.384	800.000	-0.010	0.041
-411.369	591.668	0.024	0.058
-410.355	35.720	0.207	0.181
-409.340	116.045	-0.063	-0.076
-408.325	-21.378	0.183	0.111
-407.311	772.519	-0.185	-0.501
-406.296	-50.037	-0.141	0.067
-405.282	-121.436	0.239	-0.040
-404.267	-200.000	0.048	-0.235
-403.252	-86.507	-0.231	-0.070
-402.238	149.478	0.238	0.321
-401.223	15.900	-0.184	0.144
-400.209	220.262	-0.263	0.419
-399.194	633.801	0.038	0.095
-398.179	176.883	-0.046	-0.067
-397.165	-200.000	0.006	-0.031
-396.150	-39.826	0.139	0.072
-395.136	-151.139	-0.188	-0.014
-394.121	597.700	-0.136	-0.336
-393.106	800.000	0.107	-0.368
-392.092	-157.269	0.199	0.012
-391.077	-60.793	0.258	-0.109
-390.063	800.000	-0.057	-0.238
-389.048	22.518	-0.049	-0.040
-388.033	-158.606	-0.086	-0.005
-387.019	419.624	-0.073	0.156
-386.004	-117.977	-0.263	0.047
-384.990	-105.571	0.286	0.064
-383.975	-145.604	-0.294	-0.026
-382.960	24.931	0.313	0.258
-381.946	-34.409	0.043	-0.023
-380.931	317.508	0.109	-0.205
-379.917	-200.000	-0.060	0.000
-378.902	800.000	-0.034	-0.145
-377.888	25.921	-0.154	-0.127
-376.873	-87.888	0.033	-0.010
-375.858	143.823	-0.138	0.183
-374.844	595.926	0.107	0.263
-373.829	298.323	0.209	-0.381
-372.815	-0.617	-0.245	0.173
-371.800	-200.000	-0.051	0.321
-370.785	205.908	-0.118	0.182
-369.771	155.180	-0.237	0.324
-368.756	-62.216	-0.176	-0.073
-367.742	800.000	0.083	-0.256
-366.727	-47.336	0.375	0.182
-365.712	357.194	0.164	0.325
-364.698	249.255	-0.080	-0.134
-363.683	137.739	-0.171	-0.222
-362.669	-200.000	0.010	0.301
-361.654	800.000	-0.044	-0.137
-360.639	-112.509	0.266	0.053
-359.625	-200.000	0.002	-0.327
-358.610	371.634	0.007	0.013
-357.596	-122.099	0.061	-0.010
-356.581	-200.000	0.006	0.075
-355.566	-141.713	-0.122	0.012
-354.552	-200.000	-0.031	0.199
-353.537	-21.890	-0.089	0.054
-352.523	96.188	-0.186	-0.211
-351.508	-200.000	-0.017	0.386
-350.493	116.649	0.066	0.080
-349.479	17.387	0.129	0.102
-348.464	80.144	0.239	0.256
-347.450	600.566	-0.087	0.215
-346.435	10.750	0.230	-0.174
-345.420	-200.000	0.041	0.231
-344.406	800.000	-0.037	0.118
-343.391	258.550	-0.127	0.218
-342.377	-109.978	0.040	0.008
-341.362	-200.000	-0.019	0.256
-340.348	800.000	-0.081	0.222
-339.333	-26.965	0.453	-0.262
-338.318	-88.274	-0.271	0.080
-337.304	-200.000	-0.048	0.357
-336.289	-165.001	0.102	-0.004
-335.275	-22.262	0.144	-0.087
-334.260	800.000	0.040	0.164
-333.245	-200.000	0.060	-0.467
-332.231	-13.776	0.107	0.069
-331.216	714.090	0.065	0.170
-330.202	56.695	-0.162	0.157
-329.187	20.720	-0.187	0.150
-328.172	310.198	0.003	0.006
-327.158	374.701	-0.106	0.214
-326.143	232.906	-0.055	0.089
-325.129	-146.183	-0.281	-0.025
-324.114	125.776	0.076	-0.096
-323.099	185.596	-0.131	0.193
-322.085	800.000	0.083	0.315
-321.070	-200.000	0.011	0.062
-320.056	-1.911	-0.285	0.199
-319.041	320.223	0.088	0.166
-318.026	-86.759	-0.054	0.016
-317.012	-175.315	0.219	-0.006
-315.997	47.676	-0.361	0.334
-314.983	-200.000	-0.152	0.000
-313.968	-116.327	0.314	0.058
-312.953	-51.479	0.253	-0.117
-311.939	-200.000	0.026	0.168
-310.924	54.644	-0.173	-0.165
-309.910	380.812	-0.045	-0.091
-308.895	97.238	0.064	-0.073
-307.880	125.311	0.019	-0.024
-306.866	289.723	-0.182	0.327
-305.851	-130.423	0.220	0.030
-304.837	-200.000	-0.057	-0.323
-303.822	190.039	0.156	0.233
-302.807	-80.093	-0.272	-0.090
-301.793	-60.499	-0.156	-0.066
-300.778	800.000	0.118	0.405
-299.764	166.900	-0.027	0.037
-298.749	-200.000	-0.005	-0.110
-297.735	-200.000	-0.011	0.080
-296.720	-117.400	-0.239	-0.043
-295.705	-82.125	0.182	-0.059
-294.691	-79.298	0.202	0.068
-293.676	99.915	-0.036	0.041
-292.662	-103.460	0.255	-0.059
-291.647	774.465	-0.140	-0.379
-290.632	-65.016	0.165	0.066
-289.618	-200.000	-0.019	-0.270
-288.603	282.498	0.022	0.038
-287.589	-200.000	-0.018	0.225
-286.574	5.191	0.059	0.043
-285.559	1.859	0.107	-0.076
-284.545	431.433	0.104	-0.223
-283.530	-132.044	0.275	0.035
-282.516	-82.906	-0.296	-0.094
-281.501	-200.000	-0.013	-0.158
-280.486	-136.456	0.132	-0.015
-279.472	800.000	-0.140	-0.502
-278.457	25.080	0.100	-0.082
-277.443	-154.253	0.238	-0.016
-276.428	-125.741	-0.299	-0.045
-275.413	-49.901	0.184	-0.086
-274.399	-169.548	0.308	0.011
-273.384	-61.333	-0.066	-0.028
-272.370	9.597	0.123	0.092
-271.355	159.016	-0.179	-0.246
-270.340	-154.989	-0.180	0.012
-269.326	186.591	-0.161	-0.237
-268.311	-13.810	-0.281	-0.180
-267.297	-200.000	0.028	-0.150
-266.282	-45.308	-0.246	-0.121
-265.267	-17.154	0.158	-0.098
-264.253	-79.720	-0.135	-0.045
-263.238	-200.000	0.003	0.203
-262.224	-200.000	-0.016	0.212
-261.209	-7.063	0.077	-0.052
-260.195	-22.187	-0.066	0.040
-259.180	105.693	-0.100	-0.117
-258.165	-160.579	0.265	-0.014
-257.151	29.532	0.054	-0.045
-256.136	228.688	0.269	0.434
-255.122	-153.199	-0.140	-0.010
-254.107	-200.000	-0.043	0.202
-253.092	35.044	-0.126	-0.109
-252.078	800.000	-0.048	0.133
-251.063	155.932	-0.075	0.103
-250.049	-119.962	0.325	0.055
-249.034	-200.000	-0.007	-0.222
-248.019	-200.000	0.010	0.170
-247.005	-83.919	0.243	-0.077
-245.990	-124.439	0.365	-0.056
-244.976	262.803	-0.074	0.127
-243.961	-4.252	0.353	0.242
-242.946	713.442	0.088	0.232
-241.932	-162.240	-0.198	0.010
-240.917	31.133	-0.105	0.089
-239.903	-85.320	0.045	0.014
-238.888	-43.080	-0.036	-0.018
-237.873	-191.617	-0.516	-0.005
-236.859	-200.000	0.027	0.261
-235.844	-116.964	0.440	-0.079
-234.830	270.544	-0.151	0.263
-233.815	-14.758	-0.120	0.076
-232.800	58.101	-0.114	0.110
-231.786	113.021	0.160	-0.192
-230.771	391.177	0.059	0.121
-229.757	-35.783	-0.214	0.115
-228.742	-67.698	0.135	0.052
-227.727	226.071	-0.163	0.261
-226.713	-4.040	-0.310	0.213
-225.698	-200.000	0.064	0.350
-224.684	-200.000	-0.020	-0.249
-223.669	365.952	0.118	0.235
-222.655	51.383	-0.143	0.134
-221.640	-200.000	0.040	0.306
-220.625	-81.189	-0.087	-0.028
-219.611	800.000	0.107	-0.421
-218.596	378.373	-0.103	0.208
-217.582	-79.816	-0.166	0.055
-216.567	28.028	0.132	-0.110
-215.552	141.267	0.157	0.205
-214.538	-25.183	0.194	0.114
-213.523	64.802	-0.054	-0.054
-212.509	264.391	-0.159	0.273
-211.494	-73.792	0.012	-0.004
-210.479	-193.737	0.243	0.002
-209.465	124.514	0.163	0.202
-208.450	99.702	-0.143	0.163
-207.436	-187.316	-0.153	0.002
-206.421	47.494	0.216	-0.199
-205.406	1.541	0.124	0.088
-204.392	53.386	0.083	-0.078
-203.377	-14.908	0.070	0.044
-202.363	334.645	-0.071	-0.135
-201.348	-86.724	-0.174	-0.052
-200.333	-63.778	0.235	0.095
-199.319	800.000	0.082	0.289
-198.304	-69.276	0.210	0.080
-197.290	-44.054	-0.052	-0.026
-196.275	-136.126	0.084	0.010
-195.260	201.606	-0.148	-0.225
-194.246	377.504	-0.072	-0.144
-193.231	91.116	-0.189	-0.209
-192.217	85.830	-0.186	-0.202
-191.202	-117.205	-0.110	-0.020
-190.187	29.337	0.182	0.153
-189.173	-200.000	-0.035	0.241
-188.158	-200.000	0.034	0.484
-187.144	800.000	-0.154	0.434
-186.129	-107.812	-0.302	0.065
-185.114	685.294	-0.061	0.157
-184.100	-156.133	0.046	-0.003
-183.085	227.052	-0.056	0.091
-182.071	712.499	0.031	-0.082
-181.056	55.532	-0.077	-0.073
-180.042	-200.000	-0.001	0.124
-179.027	-25.350	0.043	-0.025
-178.012	-200.000	-0.005	-0.040
-176.998	86.045	-0.112	0.121
-175.983	56.433	0.171	0.164
-174.969	-123.844	0.259	0.040
-173.954	-60.795	-0.122	0.051
-172.939	-34.475	0.397	-0.215
-171.925	-9.268	0.058	0.038
-170.910	-25.862	0.096	0.056
-169.896	181.978	-0.020	0.028
-168.881	800.000	-0.038	0.148
-167.866	-28.553	-0.141	-0.080
-166.852	22.042	0.230	-0.185
-165.837	-122.097	0.232	-0.037
-164.823	-200.000	0.077	-0.416
-163.808	225.016	-0.149	-0.238
-162.793	640.534	0.067	-0.168
-161.779	34.203	-0.206	0.177
-160.764	238.863	0.183	0.301
-159.750	-200.000	-0.022	0.310
-158.735	-92.861	0.352	-0.097
-157.720	-95.757	-0.200	0.053
-156.706	-74.262	0.125	0.044
-155.691	744.512	-0.053	0.141
-154.677	-200.000	0.037	-0.368
-153.662	-200.000	-0.004	-0.372
-152.647	-200.000	-0.149	0.000
-151.633	182.434	0.040	0.058
-150.618	-72.764	0.251	0.091
-149.604	-200.000	0.018	-0.198
-148.589	-99.000	0.156	0.039
-147.574	-114.663	0.074	0.014
-146.560	800.000	-0.087	-0.289
-145.545	297.920	0.102	0.185
-144.531	314.444	-0.139	0.258
-143.516	-106.776	-0.211	-0.046
-142.502	138.114	-0.018	0.023
-141.487	-200.000	0.056	0.341
-140.472	-152.933	-0.263	-0.018
-139.458	-119.150	0.229	-0.039
-138.443	296.582	-0.098	0.177
-137.429	-73.934	-0.271	-0.097
-136.414	-155.019	-0.415	0.027
-135.399	-200.000	0.017	-0.215
-134.385	89.975	-0.257	0.283
-133.370	-200.000	-0.055	-0.327
-132.356	763.685	0.040	0.107
-131.341	40.715	0.319	0.283
-130.326	-200.000	0.035	0.152
-129.312	122.269	0.038	-0.047
-128.297	-134.249	-0.220	-0.027
-127.283	23.483	-0.093	-0.076
-126.268	4.595	0.093	-0.067
-125.253	800.000	0.038	-0.141
-124.239	143.746	0.121	-0.158
-123.224	-161.173	-0.079	-0.004
-122.210	50.721	-0.177	-0.165
