DTS Sentinel unit serial number:	SN413079Multiplexer serial number:	ORYXHardware model number:	OX4-SRSoftware version number:	ORYX F/W v4.00 Oryx Data Collector v3.7.2.0data status	okinstallation	princeton_trtdifferential loss correction	single-endedforward channel	channel 1reverse channel	N/Adate	2019/09/19time	02:26:35forward acquisition time	60.00reverse acquisition time	0.00gamma	496.2192k internal	0.2344k external	0.2344temperature offset calibration	1.0021default loss term (dB/km)	0.3790temperature slope calibration	1.0000multiplexer offset coefficient	1.0000multiplexer slope coefficient	1.0000fibre end	0.00T internal ref (°C)	21.05T ext. ref 1 (°C)	0.67T ext. ref 2 (°C)	14.69length (m)	temperature (°C)	Stokes	anti-Stokes-747.200	369.387	-0.088	-0.179
-746.185	42.360	0.070	0.063
-745.171	737.049	0.085	-0.228
-744.156	-77.517	-0.189	0.066
-743.142	-24.674	0.249	-0.148
-742.127	-200.000	-0.073	0.456
-741.112	-8.494	-0.204	0.137
-740.098	-27.137	-0.172	-0.100
-739.083	335.782	-0.132	-0.256
-738.069	-127.763	-0.220	-0.032
-737.054	-3.142	-0.360	-0.251
-736.039	-112.561	-0.274	-0.055
-735.025	231.831	0.151	-0.247
-734.010	67.682	0.059	0.060
-732.996	-95.183	-0.148	0.040
-731.981	6.120	-0.069	-0.051
-730.966	268.861	-0.014	-0.024
-729.952	-78.133	-0.392	-0.135
-728.937	461.413	0.105	-0.234
-727.923	149.750	0.184	0.249
-726.908	-6.396	0.076	0.052
-725.894	308.345	0.077	0.144
-724.879	-200.000	0.007	0.193
-723.864	237.067	0.196	0.325
-722.850	210.443	0.184	-0.289
-721.835	127.145	0.142	0.180
-720.821	-65.389	-0.202	-0.081
-719.806	-146.601	0.372	-0.032
-718.791	-72.488	-0.227	-0.084
-717.777	-27.727	-0.033	-0.019
-716.762	796.784	0.165	-0.455
-715.748	-4.404	0.145	-0.100
-714.733	-110.695	-0.452	-0.093
-713.718	-102.389	0.116	0.028
-712.704	83.844	0.195	-0.213
-711.689	360.250	-0.020	0.040
-710.675	-200.000	-0.018	-0.095
-709.660	193.550	-0.148	0.223
-708.645	1.032	-0.144	0.103
-707.631	701.081	-0.014	0.037
-706.616	408.826	0.063	0.132
-705.602	515.019	0.011	-0.026
-704.587	-97.304	-0.158	0.041
-703.572	77.907	-0.135	-0.144
-702.558	-200.000	-0.005	-0.103
-701.543	-97.736	-0.154	0.040
-700.529	229.392	0.076	0.124
-699.514	688.438	-0.059	-0.155
-698.499	9.074	0.029	0.022
-697.485	-85.457	0.094	0.029
-696.470	-200.000	-0.038	-0.399
-695.456	800.000	0.074	0.223
-694.441	800.000	0.027	-0.104
-693.426	-56.844	-0.117	-0.052
-692.412	-99.834	0.393	-0.098
-691.397	800.000	0.127	-0.399
-690.383	4.198	-0.309	-0.226
-689.368	114.630	-0.160	-0.195
-688.354	10.449	-0.190	0.145
-687.339	-200.000	0.007	0.092
-686.324	-53.181	0.199	0.091
-685.310	-85.977	0.041	0.013
-684.295	-51.374	-0.348	-0.162
-683.281	-104.855	0.167	-0.038
-682.266	800.000	-0.118	0.388
-681.251	-200.000	0.015	0.255
-680.237	-84.683	-0.492	0.155
-679.222	-58.343	0.171	-0.074
-678.208	-200.000	-0.011	0.077
-677.193	-200.000	0.018	0.240
-676.178	-52.867	0.132	-0.061
-675.164	-105.522	-0.151	-0.034
-674.149	-200.000	-0.001	0.261
-673.135	-158.390	0.173	0.010
-672.120	-82.434	0.273	-0.089
-671.105	466.015	-0.223	0.498
-670.091	44.606	-0.039	0.036
-669.076	-49.333	0.240	0.114
-668.062	-200.000	-0.007	-0.049
-667.047	800.000	-0.021	-0.061
-666.032	107.126	-0.173	-0.205
-665.018	61.139	0.101	0.100
-664.003	79.498	-0.066	-0.071
-662.989	7.243	0.165	0.123
-661.974	-21.773	-0.318	-0.193
-660.959	230.678	0.035	0.057
-659.945	79.973	-0.188	0.202
-658.930	224.584	0.131	-0.211
-657.916	-200.000	-0.014	-0.301
-656.901	-90.433	0.387	-0.112
-655.886	-59.284	0.205	-0.088
-654.872	-200.000	-0.033	0.148
-653.857	455.186	-0.007	-0.016
-652.843	-200.000	-0.008	0.119
-651.828	357.923	-0.069	-0.138
-650.814	800.000	-0.098	0.391
-649.799	-200.000	0.050	0.222
-648.784	-53.138	0.095	-0.044
-647.770	-30.751	-0.265	-0.149
-646.755	692.133	-0.214	-0.558
-645.741	721.013	-0.113	-0.300
-644.726	-27.330	-0.149	0.086
-643.711	93.498	-0.105	-0.119
-642.697	-200.000	-0.083	0.372
-641.682	53.300	-0.178	-0.170
-640.668	-200.000	0.042	0.208
-639.653	-200.000	0.021	-0.273
-638.638	-175.737	-0.058	0.002
-637.624	-200.000	-0.004	-0.102
-636.609	66.799	-0.260	-0.264
-635.595	64.088	0.046	0.046
-634.580	-94.037	0.168	0.046
-633.565	-200.000	0.032	0.192
-632.551	-138.187	-0.541	0.060
-631.536	-64.681	-0.273	-0.110
-630.522	24.589	-0.032	-0.026
-629.507	153.068	0.166	-0.226
-628.492	146.601	-0.123	0.165
-627.478	71.566	-0.317	-0.328
-626.463	-83.063	0.297	0.095
-625.449	480.149	-0.138	0.312
-624.434	-96.348	0.046	-0.012
-623.419	-79.785	0.377	0.126
-622.405	-200.000	0.048	0.222
-621.390	-87.356	-0.192	0.058
-620.376	-135.971	0.205	-0.024
-619.361	-55.426	-0.169	-0.075
-618.346	447.251	-0.231	0.505
-617.332	415.047	0.148	-0.314
-616.317	-31.670	0.137	-0.077
-615.303	-69.137	0.045	0.017
-614.288	-200.000	0.030	-0.214
-613.273	191.337	-0.023	-0.034
-612.259	-101.053	-0.177	-0.043
-611.244	307.783	0.237	0.440
-610.230	-94.679	-0.250	0.068
-609.215	800.000	0.119	-0.395
-608.201	-22.824	0.045	0.027
-607.186	96.179	-0.058	-0.066
-606.171	-200.000	0.008	-0.218
-605.157	208.789	-0.042	-0.066
-604.142	-120.756	-0.152	-0.026
-603.128	-200.000	-0.004	-0.044
-602.113	-56.008	-0.184	0.081
-601.098	-200.000	-0.014	-0.155
-600.084	-200.000	-0.007	0.120
-599.069	-92.149	-0.212	0.060
-598.055	115.028	0.101	-0.123
-597.040	231.218	-0.143	-0.233
-596.025	64.361	-0.288	-0.288
-595.011	-33.329	-0.204	-0.112
-593.996	53.589	0.273	0.261
-592.982	99.706	0.019	-0.022
-591.967	-200.000	-0.036	0.190
-590.952	97.395	-0.211	-0.241
-589.938	-105.134	-0.126	0.029
-588.923	-22.942	0.089	0.053
-587.909	699.243	0.093	0.244
-586.894	68.790	-0.318	-0.325
-585.879	564.787	0.071	-0.170
-584.865	3.624	-0.066	-0.048
-583.850	-200.000	-0.033	0.317
-582.836	-115.900	0.149	-0.028
-581.821	-200.000	0.002	-0.397
-580.806	-200.000	0.036	0.248
-579.792	-200.000	0.067	-0.375
-578.777	-36.830	-0.045	0.024
-577.763	-87.108	0.078	-0.024
-576.748	205.271	-0.178	0.275
-575.733	-1.205	0.305	0.214
-574.719	-156.630	-0.185	-0.011
-573.704	-61.641	0.368	0.153
-572.690	631.221	-0.087	-0.220
-571.675	248.657	-0.053	-0.089
-570.661	-131.249	-0.173	-0.023
-569.646	66.687	-0.214	-0.216
-568.631	-164.586	0.392	-0.018
-567.617	-123.257	-0.165	-0.026
-566.602	800.000	-0.026	0.098
-565.588	182.461	-0.036	-0.052
-564.573	64.995	-0.327	-0.328
-563.558	408.521	-0.116	0.244
-562.544	-200.000	0.032	-0.399
-561.529	55.233	0.077	-0.074
-560.515	-114.774	0.147	0.028
-559.500	262.925	0.098	0.169
-558.485	-97.319	-0.104	-0.027
-557.471	403.178	0.071	0.148
-556.456	-84.007	-0.152	-0.048
-555.442	59.823	0.064	0.062
-554.427	-98.001	0.227	0.058
-553.412	377.004	0.154	0.312
-552.398	117.209	-0.314	-0.384
-551.383	193.306	0.091	-0.137
-550.369	-162.314	0.303	0.015
-549.354	-105.767	0.158	-0.036
-548.339	-200.000	0.021	-0.293
-547.325	-49.497	0.135	0.064
-546.310	-116.001	-0.183	-0.034
-545.296	463.228	-0.136	0.302
-544.281	-124.124	0.115	-0.018
-543.266	-64.847	-0.021	0.008
-542.252	460.310	-0.035	-0.077
-541.237	-200.000	0.035	-0.237
-540.223	-200.000	-0.011	-0.076
-539.208	125.691	-0.215	0.270
-538.193	-74.033	0.257	0.093
-537.179	330.571	-0.074	0.142
-536.164	73.094	0.106	0.110
-535.150	-137.111	-0.394	0.045
-534.135	-200.000	-0.020	-0.485
-533.121	112.817	-0.187	-0.225
-532.106	-200.000	-0.008	0.042
-531.091	-125.202	0.136	-0.021
-530.077	1.015	-0.157	0.112
-529.062	190.255	-0.059	-0.088
-528.048	251.915	-0.164	-0.277
-527.033	352.523	-0.108	0.213
-526.018	57.082	-0.059	-0.057
-525.004	185.768	-0.063	0.093
-523.989	271.420	0.063	0.111
-522.975	800.000	0.107	-0.457
-521.960	-200.000	-0.005	0.073
-520.945	-108.303	0.156	-0.033
-519.931	-200.000	0.007	-0.053
-518.916	-87.383	-0.219	0.066
-517.902	-113.774	0.299	-0.058
-516.887	119.792	-0.158	0.194
-515.872	-131.395	0.052	0.007
-514.858	-139.949	-0.191	0.020
-513.843	800.000	-0.040	0.146
-512.829	-19.010	-0.237	0.146
-511.814	800.000	-0.009	0.033
-510.799	47.501	0.339	-0.314
-509.785	-135.488	-0.327	0.039
-508.770	-76.636	0.224	-0.078
-507.756	159.719	-0.106	0.146
-506.741	-106.917	0.095	-0.021
-505.726	35.388	0.313	0.272
-504.712	-158.277	-0.214	-0.012
-503.697	-96.989	0.428	-0.111
-502.683	800.000	0.019	-0.063
-501.668	25.300	-0.075	-0.062
-500.653	-132.235	-0.195	-0.025
-499.639	40.221	-0.157	0.140
-498.624	298.579	-0.085	0.155
-497.610	77.787	-0.300	-0.316
-496.595	527.329	0.145	0.339
-495.581	572.540	0.233	-0.563
-494.566	117.535	0.126	0.153
-493.551	49.770	0.118	0.110
-492.537	85.247	0.110	-0.119
-491.522	-26.287	-0.007	-0.004
-490.508	800.000	0.071	-0.291
-489.493	289.136	-0.145	-0.260
-488.478	128.469	-0.124	0.157
-487.464	-200.000	-0.050	-0.227
-486.449	18.526	-0.206	0.163
-485.435	133.947	0.155	-0.198
-484.420	-119.075	-0.244	-0.042
-483.405	341.095	0.056	0.108
-482.391	69.165	0.198	-0.201
-481.376	-200.000	-0.022	0.182
-480.362	20.474	-0.239	0.192
-479.347	-200.000	0.237	0.001
-478.332	-165.128	0.191	0.008
-477.318	542.800	0.074	0.175
-476.303	800.000	0.047	-0.137
-475.289	800.000	0.103	0.335
-474.274	800.000	-0.083	-0.340
-473.259	-33.680	-0.322	-0.176
-472.245	14.945	0.382	-0.296
-471.230	-200.000	0.009	0.223
-470.216	800.000	-0.072	0.282
-469.201	113.431	0.145	-0.174
-468.186	426.365	-0.119	-0.253
-467.172	-84.505	-0.206	0.064
-466.157	-31.432	0.348	-0.194
-465.143	-200.000	0.033	0.235
-464.128	-200.000	-0.079	-0.580
-463.113	-200.000	0.018	-0.108
-462.099	614.423	-0.073	-0.182
-461.084	-42.595	-0.113	-0.057
-460.070	370.239	0.054	0.108
-459.055	56.966	0.202	0.195
-458.040	-10.566	0.170	-0.111
-457.026	-49.841	0.238	-0.112
-456.011	-90.520	-0.177	0.051
-454.997	94.656	0.173	-0.195
-453.982	129.365	-0.054	0.069
-452.968	-106.662	0.146	0.032
-451.953	318.580	0.096	-0.179
-450.938	151.160	0.047	0.063
-449.924	-47.633	0.279	0.134
-448.909	-200.000	-0.019	0.176
-447.895	-157.741	0.130	-0.008
-446.880	-145.424	0.200	0.018
-445.865	800.000	-0.121	-0.375
-444.851	8.312	-0.279	-0.207
-443.836	-19.764	0.246	-0.150
-442.822	181.052	0.235	0.342
-441.807	288.452	0.071	0.127
-440.792	-200.000	-0.065	-0.292
-439.778	149.537	-0.163	-0.219
-438.763	577.685	0.215	0.519
-437.749	214.124	-0.053	-0.083
-436.734	-134.051	0.206	-0.025
-435.719	6.299	0.280	-0.206
-434.705	13.549	-0.135	-0.104
-433.690	2.319	0.310	-0.222
-432.676	-6.638	-0.345	0.232
-431.661	245.108	-0.227	-0.378
-430.646	-200.000	-0.017	0.190
-429.632	-45.575	-0.388	-0.190
-428.617	-200.000	-0.007	0.033
-427.603	-7.100	0.070	-0.047
-426.588	8.864	-0.162	0.121
-425.573	800.000	0.132	0.384
-424.559	169.624	0.246	0.348
-423.544	8.555	-0.103	-0.076
-422.530	89.485	0.046	0.051
-421.515	416.956	0.153	0.323
-420.500	72.285	-0.178	0.183
-419.486	113.156	0.150	0.179
-418.471	407.338	0.046	0.097
-417.457	180.281	0.145	0.211
-416.442	-200.000	0.019	0.235
-415.428	385.239	0.083	0.170
-414.413	-200.000	-0.065	-0.346
-413.398	-43.213	-0.360	0.180
-412.384	224.098	-0.175	0.279
-411.369	126.747	-0.052	0.065
-410.355	-99.926	0.125	0.031
-409.340	601.571	0.097	-0.239
-408.325	53.864	0.362	-0.344
-407.311	800.000	-0.040	-0.142
-406.296	46.456	-0.226	-0.207
-405.282	-138.966	-0.128	0.014
-404.267	-98.266	-0.235	-0.060
-403.252	-200.000	-0.012	-0.150
-402.238	-35.499	-0.237	0.127
-401.223	-81.774	-0.294	0.095
-400.209	-80.846	0.335	0.110
-399.194	298.923	-0.077	0.140
-398.179	453.575	-0.054	-0.118
-397.165	-60.071	-0.250	-0.105
-396.150	73.298	-0.183	0.189
-395.136	-111.039	-0.141	0.029
-394.121	-200.000	0.097	-0.470
-393.106	-164.620	-0.071	-0.003
-392.092	-200.000	0.028	0.366
-391.077	695.902	-0.016	-0.042
-390.063	-200.000	0.037	0.273
-389.048	-124.563	0.096	-0.015
-388.033	-200.000	-0.037	0.249
-387.019	-200.000	-0.039	0.435
-386.004	800.000	-0.030	0.086
-384.990	76.341	-0.247	-0.258
-383.975	476.844	0.137	-0.306
-382.960	-15.104	0.073	0.046
-381.946	610.992	0.090	-0.222
-380.931	42.470	0.132	0.119
-379.917	-200.000	0.030	-0.174
-378.902	800.000	0.024	0.084
-377.888	-125.211	-0.119	0.018
-376.873	16.099	0.148	0.115
-375.858	-33.181	0.124	-0.068
-374.844	-107.428	0.164	0.036
-373.829	185.732	-0.096	-0.141
-372.815	302.095	-0.071	-0.129
-371.800	800.000	0.066	-0.223
-370.785	11.277	0.204	-0.154
-369.771	-22.789	-0.271	-0.161
-368.756	84.939	0.190	-0.206
-367.742	-9.258	-0.347	0.229
-366.727	-200.000	0.030	0.226
-365.712	-129.724	-0.125	-0.017
-364.698	-46.466	-0.159	-0.077
-363.683	-200.000	-0.002	-0.045
-362.669	-122.856	-0.213	-0.034
-361.654	-107.429	0.028	0.006
-360.639	-112.431	-0.110	-0.022
-359.625	-32.951	-0.363	0.199
-358.610	132.518	-0.254	-0.323
-357.596	-104.833	0.163	0.037
-356.581	-19.598	-0.315	-0.192
-355.566	-23.723	-0.274	-0.162
-354.552	800.000	0.060	-0.174
-353.537	-38.711	0.158	0.082
-352.523	121.731	0.260	0.320
-351.508	-73.223	0.281	-0.101
-350.493	-200.000	0.008	-0.187
-349.479	-13.440	-0.113	0.072
-348.464	-51.650	0.363	-0.167
-347.450	-200.000	-0.018	0.300
-346.435	183.719	0.174	0.254
-345.420	-16.469	-0.098	0.061
-344.406	69.702	0.239	0.243
-343.391	-132.609	-0.550	-0.069
-342.377	800.000	-0.080	-0.259
-341.362	80.249	-0.112	-0.119
-340.348	-21.811	-0.388	-0.232
-339.333	-7.945	0.202	-0.134
-338.318	-48.484	-0.081	0.038
-337.304	77.930	0.121	0.127
-336.289	-32.696	0.404	0.221
-335.275	656.685	-0.100	0.253
-334.260	33.854	-0.140	-0.120
-333.245	-165.115	0.163	-0.007
-332.231	54.845	-0.086	0.082
-331.216	-177.708	-0.144	0.003
-330.202	580.918	0.027	-0.064
-329.187	-200.000	0.027	0.266
-328.172	-127.604	0.148	-0.021
-327.158	584.242	-0.096	-0.233
-326.143	1.718	0.240	0.170
-325.129	-45.588	0.190	-0.093
-324.114	69.270	0.172	0.175
-323.099	566.731	0.059	-0.142
-322.085	732.472	0.021	-0.054
-321.070	59.820	0.122	0.119
-320.056	800.000	0.051	-0.174
-319.041	25.277	0.043	-0.035
-318.026	500.524	0.107	0.243
-317.012	2.039	0.324	0.231
-315.997	-90.622	-0.353	0.100
-314.983	428.499	-0.109	0.232
-313.968	84.480	0.131	0.141
-312.953	28.952	0.111	-0.092
-311.939	162.745	0.353	0.487
-310.924	-17.281	-0.232	0.144
-309.910	-28.492	0.199	0.113
-308.895	-10.815	0.214	-0.139
-307.880	-109.147	-0.483	0.101
-306.866	259.457	0.073	0.123
-305.851	-97.576	-0.485	-0.124
-304.837	15.560	-0.086	-0.066
-303.822	505.488	-0.086	0.197
-302.807	-157.124	0.300	-0.018
-301.793	24.779	0.154	0.126
-300.778	-200.000	-0.016	-0.252
-299.764	-200.000	-0.040	-0.332
-298.749	-200.000	-0.009	-0.131
-297.735	-74.773	-0.023	0.008
-296.720	-40.205	-0.189	0.097
-295.705	-89.722	0.187	-0.054
-294.691	-28.980	0.254	-0.143
-293.676	10.050	0.158	-0.118
-292.662	-200.000	0.006	-0.129
-291.647	-200.000	-0.070	-0.339
-290.632	577.971	0.144	0.345
-289.618	-200.000	-0.031	-0.211
-288.603	207.999	-0.106	0.162
-287.589	-92.481	-0.133	0.037
-286.574	800.000	-0.050	-0.188
-285.559	372.757	0.138	-0.276
-284.545	-7.899	0.321	-0.213
-283.530	800.000	0.049	0.182
-282.516	-153.109	0.163	-0.011
-281.501	19.090	0.246	-0.194
-280.486	618.731	0.080	-0.197
-279.472	544.655	0.092	-0.216
-278.457	474.108	-0.170	0.376
-277.443	-116.355	-0.338	-0.061
-276.428	271.328	-0.064	-0.111
-275.413	83.771	-0.120	-0.129
-274.399	69.127	0.215	-0.217
-273.384	800.000	-0.116	0.372
-272.370	-200.000	-0.003	0.102
-271.355	-106.286	-0.248	-0.055
-270.340	11.966	0.219	-0.166
-269.326	-78.732	-0.310	0.104
-268.311	-200.000	0.010	-0.076
-267.297	-130.216	-0.307	0.041
-266.282	135.449	-0.265	-0.339
-265.267	-200.000	-0.067	0.362
-264.253	-200.000	-0.079	0.423
-263.238	143.627	-0.041	-0.053
-262.224	124.230	-0.060	0.075
-261.209	-159.100	0.293	-0.016
-260.195	140.098	0.062	0.080
-259.180	-200.000	-0.006	0.041
-258.165	134.580	-0.040	0.051
-257.151	-26.050	0.145	0.084
-256.136	-46.786	0.278	0.134
-255.122	-63.485	-0.256	-0.103
-254.107	-200.000	-0.025	0.273
-253.092	-200.000	-0.050	0.223
-252.078	142.761	-0.213	0.278
-251.063	2.176	-0.176	-0.125
-250.049	-141.138	0.342	-0.034
-249.034	-200.000	0.016	-0.107
-248.019	-200.000	0.008	0.069
-247.005	-28.575	0.087	0.049
-245.990	180.721	-0.112	0.162
-244.976	-89.277	0.317	-0.092
-243.961	113.655	0.110	-0.131
-242.946	-149.573	-0.306	0.024
-241.932	256.572	-0.159	-0.268
-240.917	65.560	-0.107	0.107
-239.903	-10.395	-0.187	0.122
-238.888	107.886	0.060	0.071
-237.873	-73.554	-0.304	0.109
-236.859	137.093	-0.076	-0.098
-235.844	-22.841	0.527	0.312
-234.830	-95.359	0.340	-0.090
-233.815	204.535	-0.046	0.070
-232.800	46.929	-0.077	0.070
-231.786	800.000	-0.071	-0.253
-230.771	136.899	0.150	0.193
-229.757	133.979	-0.145	-0.184
-228.742	5.814	-0.056	0.040
-227.727	136.649	-0.300	0.383
-226.713	-200.000	0.041	-0.202
-225.698	181.230	0.140	0.202
-224.684	-93.394	-0.156	-0.042
-223.669	-23.830	0.307	0.180
-222.655	800.000	-0.064	0.189
-221.640	0.857	0.166	-0.117
-220.625	-66.427	-0.239	0.093
-219.611	800.000	0.085	0.246
-218.596	238.921	-0.120	0.195
-217.582	-189.603	-0.117	-0.001
-216.567	800.000	0.102	0.295
-215.552	149.237	0.138	-0.183
-214.538	72.519	-0.122	-0.125
-213.523	-31.153	-0.473	0.262
-212.509	1.537	-0.042	-0.030
-211.494	-19.453	0.115	0.070
-210.479	-76.942	0.352	-0.121
-209.465	-111.027	0.306	-0.061
-208.450	800.000	0.069	0.211
-207.436	-161.356	0.395	-0.020
-206.421	-200.000	-0.024	-0.242
-205.406	-87.940	-0.260	0.077
-204.392	635.742	-0.059	-0.146
-203.377	-34.237	0.142	-0.076
-202.363	-60.644	0.312	-0.130
-201.348	-200.000	-0.060	0.289
-200.333	-81.646	0.107	0.034
-199.319	-200.000	0.078	0.601
-198.304	268.629	0.034	0.058
-197.290	-7.862	-0.174	0.115
-196.275	89.674	0.208	0.228
-195.260	52.733	0.031	-0.029
-194.246	515.767	0.124	-0.283
-193.231	-200.000	0.034	-0.264
-192.217	-87.612	0.311	-0.092
-191.202	-151.695	-0.050	0.004
-190.187	49.598	-0.160	0.147
-189.173	-155.790	-0.168	-0.011
-188.158	-80.189	0.139	-0.046
-187.144	-88.723	0.154	-0.045
-186.129	-57.789	-0.323	0.138
-185.114	-200.000	-0.019	-0.182
-184.100	-153.598	0.401	-0.027
-183.085	254.634	0.056	0.093
-182.071	287.685	0.108	0.192
-181.056	-200.000	0.044	0.239
-180.042	-76.773	-0.180	-0.062
-179.027	-156.643	-0.250	0.015
-178.012	-200.000	-0.065	0.287
-176.998	800.000	0.017	0.046
-175.983	-100.117	-0.207	0.050
-174.969	33.374	0.205	-0.174
-173.954	66.985	-0.137	-0.136
-172.939	225.573	-0.037	-0.059
-171.925	-24.455	-0.085	-0.049
-170.910	228.623	0.135	0.215
-169.896	-128.995	0.058	-0.008
-168.881	-191.749	-0.263	0.003
-167.866	-142.319	0.219	-0.021
-166.852	-70.767	0.182	0.067
-165.837	224.207	0.086	-0.136
-164.823	111.660	-0.106	0.125
-163.808	-200.000	0.013	-0.087
-162.793	-200.000	-0.002	0.162
-161.779	-200.000	-0.027	0.329
-160.764	-21.657	-0.078	0.046
-159.750	-159.076	0.329	-0.018
-158.735	213.161	0.088	0.136
-157.720	139.580	0.284	0.365
-156.706	61.888	0.077	0.075
-155.691	-106.307	0.112	-0.025
-154.677	-116.811	0.177	-0.032
-153.662	4.130	0.035	-0.025
-152.647	214.561	0.221	-0.343
-151.633	138.687	0.179	-0.230
-150.618	-1.420	-0.310	0.214
-149.604	-200.000	-0.033	-0.316
-148.589	51.348	0.113	-0.105
-147.574	-200.000	-0.000	0.533
-146.560	-126.883	-0.176	-0.025
-145.545	-200.000	-0.056	-0.278
-144.531	-59.010	-0.215	-0.091
-143.516	-200.000	-0.012	-0.226
-142.502	17.954	0.196	0.153
-141.487	800.000	-0.030	0.085
-140.472	-200.000	-0.011	-0.239
-139.458	319.130	0.157	0.290
-138.443	-135.023	-0.150	-0.018
-137.429	143.694	0.179	-0.233
-136.414	-116.438	-0.311	-0.056
-135.399	-56.342	-0.122	0.053
-134.385	800.000	-0.033	0.111
-133.370	-38.685	0.137	-0.071
-132.356	40.872	-0.182	-0.160
-131.341	-200.000	0.016	0.077
-130.326	-136.549	-0.399	0.045
-129.312	59.291	0.158	0.152
-128.297	800.000	-0.086	0.260
-127.283	-106.002	0.207	-0.046
-126.268	-107.720	-0.128	0.027
-125.253	-36.439	-0.227	0.120
-124.239	-76.326	0.337	-0.116
-123.224	-56.820	-0.411	-0.177
-122.210	285.549	0.039	0.069
-121.195	-135.064	-0.335	0.039
