DTS Sentinel unit serial number:	SN413079Multiplexer serial number:	ORYXHardware model number:	OX4-SRSoftware version number:	ORYX F/W v4.00 Oryx Data Collector v3.7.2.0data status	okinstallation	princeton_trtdifferential loss correction	single-endedforward channel	channel 1reverse channel	N/Adate	2019/09/17time	13:06:35forward acquisition time	60.00reverse acquisition time	0.00gamma	496.2192k internal	0.2313k external	0.2313temperature offset calibration	0.9966default loss term (dB/km)	0.3790temperature slope calibration	1.0000multiplexer offset coefficient	1.0000multiplexer slope coefficient	1.0000fibre end	0.00T internal ref (°C)	33.62T ext. ref 1 (°C)	0.42T ext. ref 2 (°C)	31.59length (m)	temperature (°C)	Stokes	anti-Stokes-747.200	-200.000	0.008	-0.154
-746.185	351.880	0.125	0.252
-745.171	18.765	0.097	0.079
-744.156	-200.000	-0.007	-0.036
-743.142	64.659	0.314	0.321
-742.127	800.000	0.083	0.305
-741.112	441.156	0.115	0.256
-740.098	362.301	0.080	0.162
-739.083	1.366	0.247	-0.180
-738.069	-85.170	0.203	0.064
-737.054	800.000	0.086	-0.324
-736.039	523.904	-0.131	-0.313
-735.025	680.647	-0.034	-0.089
-734.010	800.000	-0.112	-0.459
-732.996	14.208	-0.157	-0.124
-731.981	-23.205	-0.034	-0.021
-730.966	-200.000	0.022	-0.118
-729.952	800.000	-0.157	-0.446
-728.937	24.575	0.049	-0.042
-727.923	28.941	-0.323	-0.278
-726.908	380.118	-0.054	0.112
-725.894	800.000	0.080	-0.350
-724.879	112.224	-0.144	0.176
-723.864	-200.000	-0.031	0.211
-722.850	95.088	-0.295	-0.341
-721.835	800.000	0.049	-0.164
-720.821	-140.304	0.081	0.009
-719.806	-159.130	-0.069	0.004
-718.791	360.995	0.067	-0.136
-717.777	-181.713	-0.286	0.006
-716.762	490.785	-0.123	-0.285
-715.748	-74.248	-0.176	0.064
-714.733	-106.981	-0.260	0.058
-713.718	-41.214	-0.286	-0.149
-712.704	-200.000	0.016	-0.334
-711.689	164.213	-0.174	-0.248
-710.675	503.942	0.040	-0.093
-709.660	16.296	0.280	-0.224
-708.645	289.423	0.192	-0.352
-707.631	-85.912	0.365	-0.114
-706.616	-200.000	0.016	-0.109
-705.602	-19.009	-0.110	0.069
-704.587	13.991	-0.208	0.164
-703.572	204.922	-0.209	0.328
-702.558	108.583	-0.225	0.272
-701.543	-200.000	0.002	0.051
-700.529	-69.620	0.155	0.060
-699.514	641.095	0.059	-0.153
-698.499	41.448	0.070	-0.065
-697.485	-89.174	-0.230	-0.069
-696.470	-200.000	0.010	-0.215
-695.456	-184.536	-0.051	0.001
-694.441	-4.767	-0.069	-0.048
-693.426	635.329	0.091	0.234
-692.412	-136.488	0.048	0.006
-691.397	-81.163	-0.096	-0.032
-690.383	-170.916	-0.124	-0.004
-689.368	63.793	0.227	-0.231
-688.354	-5.139	-0.108	-0.075
-687.339	-117.664	-0.059	-0.011
-686.324	-6.801	0.363	-0.250
-685.310	769.388	-0.041	-0.113
-684.295	-49.407	0.142	0.069
-683.281	566.019	0.100	-0.246
-682.266	-45.332	-0.290	-0.146
-681.251	125.571	-0.042	0.053
-680.237	663.940	0.097	0.252
-679.222	800.000	-0.121	0.485
-678.208	-200.000	0.008	-0.078
-677.193	-176.256	0.097	-0.003
-676.178	-6.356	-0.177	-0.122
-675.164	-118.348	-0.200	0.036
-674.149	616.558	-0.025	-0.064
-673.135	-21.272	-0.116	-0.072
-672.120	-15.755	-0.131	-0.084
-671.105	416.379	0.113	0.243
-670.091	-67.127	-0.201	-0.080
-669.076	-109.471	-0.343	0.073
-668.062	181.865	0.098	0.146
-667.047	800.000	0.056	0.178
-666.032	-200.000	0.067	-0.403
-665.018	-100.079	-0.415	-0.105
-664.003	258.796	0.052	0.091
-662.989	-111.100	0.126	0.026
-661.974	-200.000	-0.035	-0.706
-660.959	-80.093	-0.180	0.061
-659.945	4.684	-0.074	-0.055
-658.930	-43.366	-0.114	-0.058
-657.916	108.722	0.150	-0.181
-656.901	44.438	-0.253	0.235
-655.886	-37.081	-0.204	-0.110
-654.872	800.000	0.037	0.153
-653.857	-71.024	0.195	0.074
-652.843	35.374	-0.038	-0.034
-651.828	200.943	0.153	-0.238
-650.814	-72.363	-0.300	-0.112
-649.799	-34.730	0.257	0.142
-648.784	361.717	0.100	0.203
-647.770	608.656	0.118	0.297
-646.755	15.579	-0.151	-0.120
-645.741	-200.000	-0.045	-0.591
-644.726	320.871	0.205	-0.394
-643.711	800.000	-0.078	-0.259
-642.697	-142.541	0.186	-0.018
-641.682	526.588	0.070	-0.167
-640.668	-200.000	-0.052	-0.258
-639.653	-40.223	-0.199	-0.105
-638.638	-200.000	0.060	0.273
-637.624	-200.000	-0.051	0.466
-636.609	25.107	0.241	0.202
-635.595	-200.000	0.067	0.465
-634.580	111.014	0.144	0.175
-633.565	-200.000	-0.002	-0.378
-632.551	-200.000	0.002	-0.156
-631.536	-93.189	-0.258	-0.072
-630.522	361.886	0.160	-0.325
-629.507	291.931	0.066	0.122
-628.492	800.000	-0.055	0.166
-627.478	800.000	-0.088	0.345
-626.463	-103.939	-0.463	-0.109
-625.449	800.000	-0.032	-0.096
-624.434	628.291	0.014	-0.036
-623.419	-14.595	0.120	-0.078
-622.405	-166.495	-0.142	-0.006
-621.390	67.449	0.138	-0.142
-620.376	234.866	0.069	0.115
-619.361	-78.708	-0.306	0.106
-618.346	-200.000	0.016	-0.145
-617.332	-64.749	0.186	0.076
-616.317	800.000	0.047	0.132
-615.303	-22.485	0.261	0.159
-614.288	-200.000	-0.010	0.045
-613.273	60.233	-0.120	-0.120
-612.259	-78.436	0.249	-0.086
-611.244	-6.343	0.305	0.210
-610.230	30.771	-0.187	-0.161
-609.215	-55.747	-0.337	0.152
-608.201	-135.632	0.256	-0.031
-607.186	-153.183	0.145	0.010
-606.171	-200.000	-0.047	-0.447
-605.157	-128.050	-0.486	0.070
-604.142	9.084	0.063	-0.048
-603.128	369.517	0.140	-0.285
-602.113	24.409	0.264	-0.220
-601.098	9.844	-0.336	-0.257
-600.084	54.255	0.072	-0.069
-599.069	-29.479	-0.159	0.091
-598.055	-105.880	-0.400	0.091
-597.040	268.962	0.030	0.052
-596.025	-76.151	0.310	-0.110
-595.011	-200.000	0.015	0.192
-593.996	800.000	-0.017	0.054
-592.982	91.664	-0.143	0.162
-591.967	-82.105	-0.098	0.032
-590.952	-59.413	0.183	0.079
-589.938	63.537	-0.414	0.419
-588.923	-128.937	0.074	0.010
-587.909	43.960	0.264	0.244
-586.894	-200.000	-0.011	-0.389
-585.879	28.521	0.127	-0.108
-584.865	800.000	0.073	-0.216
-583.850	-200.000	0.002	0.035
-582.836	-48.930	0.056	-0.027
-581.821	-116.360	-0.106	0.020
-580.806	309.669	0.171	0.323
-579.792	-50.391	-0.022	-0.010
-578.777	2.321	0.103	-0.075
-577.763	-200.000	0.023	0.259
-576.748	197.167	0.120	0.185
-575.733	143.596	0.064	0.086
-574.719	-80.129	-0.253	0.085
-573.704	-178.705	-0.343	-0.008
-572.690	800.000	0.016	0.059
-571.675	58.503	0.107	-0.105
-570.661	359.869	0.094	0.189
-569.646	13.207	-0.219	0.171
-568.631	800.000	0.100	-0.359
-567.617	589.229	0.083	-0.205
-566.602	22.432	-0.232	0.191
-565.588	66.795	0.119	0.122
-564.573	-52.189	0.263	0.123
-563.558	321.290	-0.038	-0.073
-562.544	800.000	-0.049	-0.198
-561.529	-62.564	0.171	-0.072
-560.515	532.601	0.124	0.296
-559.500	460.135	0.088	-0.198
-558.485	-109.198	0.243	-0.052
-557.471	432.637	-0.091	-0.199
-556.456	-57.389	0.158	-0.070
-555.442	-112.078	0.398	0.081
-554.427	-200.000	-0.007	-0.091
-553.412	606.954	-0.132	0.332
-552.398	-193.522	0.254	-0.002
-551.383	42.630	-0.146	-0.134
-550.369	800.000	0.071	0.252
-549.354	-148.070	0.506	0.042
-548.339	19.315	0.396	0.320
-547.325	-111.138	0.216	0.044
-546.310	56.032	-0.232	0.226
-545.296	-31.353	-0.202	-0.114
-544.281	-35.534	-0.151	-0.082
-543.266	-66.638	-0.340	-0.136
-542.252	38.685	-0.190	-0.171
-541.237	-200.000	0.054	-0.355
-540.223	767.923	-0.071	0.194
-539.208	104.920	0.219	-0.260
-538.193	800.000	-0.045	-0.142
-537.179	-107.640	0.303	0.067
-536.164	-167.469	0.169	-0.007
-535.150	-121.255	0.348	0.059
-534.135	450.024	-0.089	0.197
-533.121	800.000	-0.065	-0.260
-532.106	-39.906	0.420	-0.220
-531.091	-135.188	-0.196	-0.024
-530.077	-200.000	-0.026	0.164
-529.062	513.248	0.031	-0.073
-528.048	800.000	-0.123	0.396
-527.033	152.173	-0.091	0.125
-526.018	4.201	0.167	-0.123
-525.004	-34.754	-0.073	0.040
-523.989	-148.763	0.156	-0.013
-522.975	49.356	-0.149	-0.141
-521.960	33.866	-0.194	-0.170
-520.945	90.633	-0.241	0.271
-519.931	-53.262	0.136	-0.063
-518.916	800.000	-0.078	-0.228
-517.902	-157.453	-0.169	-0.010
-516.887	-137.167	0.117	0.013
-515.872	793.906	0.090	-0.250
-514.858	-133.658	-0.306	0.038
-513.843	-12.276	-0.226	0.148
-512.829	-10.386	-0.247	-0.165
-511.814	152.622	-0.115	-0.159
-510.799	23.405	0.250	0.207
-509.785	-23.766	-0.105	0.063
-508.770	800.000	-0.043	-0.133
-507.756	135.582	0.149	0.195
-506.741	800.000	0.103	-0.345
-505.726	800.000	0.029	0.119
-504.712	-128.455	0.069	0.010
-503.697	100.080	-0.059	0.069
-502.683	-200.000	-0.004	0.134
-501.668	64.289	0.003	-0.003
-500.653	16.593	-0.131	-0.104
-499.639	102.533	0.073	0.086
-498.624	65.720	-0.175	0.178
-497.610	-200.000	-0.007	-0.241
-496.595	27.861	0.129	-0.109
-495.581	553.147	0.077	-0.186
-494.566	-28.484	0.038	-0.022
-493.551	67.389	0.359	0.368
-492.537	800.000	0.075	0.306
-491.522	327.725	0.145	-0.279
-490.508	180.508	-0.055	-0.081
-489.493	-45.919	-0.212	-0.105
-488.478	800.000	0.060	-0.206
-487.464	-54.843	-0.407	-0.184
-486.449	-154.263	-0.356	-0.024
-485.435	-116.748	-0.216	-0.040
-484.420	672.917	-0.081	-0.211
-483.405	508.837	-0.012	-0.028
-482.391	-200.000	0.048	-0.319
-481.376	-200.000	0.201	-0.000
-480.362	231.583	0.076	-0.124
-479.347	90.403	-0.197	-0.221
-478.332	17.927	0.208	0.166
-477.318	438.181	-0.010	0.023
-476.303	800.000	0.059	-0.206
-475.289	144.913	-0.205	-0.274
-474.274	24.964	-0.080	0.066
-473.259	-52.186	-0.244	-0.114
-472.245	-200.000	-0.007	-0.121
-471.230	258.746	-0.118	0.205
-470.216	-96.981	-0.229	0.060
-469.201	800.000	-0.134	-0.416
-468.186	-87.707	-0.324	0.098
-467.172	800.000	-0.051	0.165
-466.157	85.956	0.194	0.215
-465.143	223.704	0.117	-0.190
-464.128	659.501	0.066	-0.169
-463.113	139.046	0.106	0.140
-462.099	-200.000	0.013	0.096
-461.084	44.869	0.162	0.149
-460.070	-95.486	0.176	-0.047
-459.055	-169.991	-0.088	0.003
-458.040	800.000	-0.058	-0.173
-457.026	800.000	0.029	-0.109
-456.011	800.000	-0.054	0.197
-454.997	32.587	0.396	0.343
-453.982	34.515	-0.133	-0.117
-452.968	-44.864	-0.069	0.035
-451.953	376.609	0.153	0.314
-450.938	-121.977	0.365	0.060
-449.924	147.509	0.139	0.188
-448.909	110.076	0.068	0.082
-447.895	57.464	-0.143	0.140
-446.880	31.087	-0.083	0.071
-445.865	-45.640	-0.187	-0.093
-444.851	113.323	-0.068	-0.083
-443.836	-42.019	-0.212	0.109
-442.822	440.411	-0.033	0.072
-441.807	-33.721	-0.202	-0.112
-440.792	-126.379	0.309	0.046
-439.778	66.016	-0.142	0.144
-438.763	-199.915	-0.322	-0.002
-437.749	305.583	0.033	-0.061
-436.734	177.823	-0.398	0.582
-435.719	800.000	0.077	0.335
-434.705	453.028	-0.136	0.300
-433.690	103.054	-0.052	-0.061
-432.676	56.652	0.267	-0.261
-431.661	-87.923	0.209	0.063
-430.646	-200.000	-0.047	0.368
-429.632	-76.794	-0.223	0.078
-428.617	-141.170	0.185	0.019
-427.603	-200.000	-0.095	-0.425
-426.588	-200.000	-0.081	-0.355
-425.573	-200.000	-0.015	0.209
-424.559	140.718	-0.218	-0.289
-423.544	800.000	-0.029	0.123
-422.530	-56.850	-0.184	0.081
-421.515	-200.000	0.047	-0.296
-420.500	-184.274	-0.116	-0.002
-419.486	800.000	-0.049	0.177
-418.471	132.063	-0.172	-0.222
-417.457	8.251	-0.100	-0.075
-416.442	39.350	0.107	0.096
-415.428	525.386	0.055	0.130
-414.413	800.000	-0.013	-0.050
-413.398	111.847	0.040	0.048
-412.384	-200.000	-0.041	-0.335
-411.369	125.063	-0.219	0.277
-410.355	51.535	0.473	0.450
-409.340	-118.627	0.121	0.021
-408.325	800.000	0.063	-0.233
-407.311	800.000	0.095	-0.300
-406.296	123.273	-0.171	-0.214
-405.282	156.106	-0.074	-0.102
-404.267	-105.319	0.216	0.049
-403.252	-51.996	-0.058	0.027
-402.238	-45.158	-0.226	-0.112
-401.223	108.116	-0.299	0.356
-400.209	177.467	0.108	0.158
-399.194	406.892	-0.081	-0.171
-398.179	-200.000	-0.001	0.111
-397.165	-200.000	0.067	-0.295
-396.150	-105.550	0.134	0.030
-395.136	-79.979	0.165	0.055
-394.121	800.000	0.119	-0.372
-393.106	-200.000	-0.002	0.156
-392.092	196.583	0.116	-0.177
-391.077	-200.000	0.002	0.017
-390.063	-200.000	-0.014	-0.231
-389.048	-115.947	0.228	0.043
-388.033	-200.000	-0.017	0.092
-387.019	13.458	-0.173	0.134
-386.004	-200.000	-0.007	-0.307
-384.990	-200.000	-0.055	0.338
-383.975	-45.549	0.162	0.080
-382.960	102.988	-0.040	0.047
-381.946	118.778	-0.085	0.105
-380.931	-26.395	-0.263	0.154
-379.917	7.219	-0.132	-0.099
-378.902	325.599	0.102	0.196
-377.888	-200.000	-0.012	-0.133
-376.873	8.374	0.097	0.073
-375.858	-115.320	-0.116	0.022
-374.844	-39.815	-0.136	-0.071
-373.829	55.724	-0.206	0.199
-372.815	101.209	0.207	-0.240
-371.800	628.160	-0.116	0.293
-370.785	-114.554	-0.212	0.041
-369.771	268.868	0.093	-0.163
-368.756	-69.366	0.115	-0.044
-367.742	-92.659	-0.057	0.016
-366.727	47.911	0.100	0.093
-365.712	51.228	0.070	0.067
-364.698	45.735	-0.193	-0.179
-363.683	196.158	0.234	0.356
-362.669	-54.686	-0.204	-0.092
-361.654	-32.965	0.357	-0.198
-360.639	-85.283	-0.118	-0.037
-359.625	800.000	-0.101	-0.438
-358.610	133.231	-0.119	0.153
-357.596	-152.741	0.202	-0.014
-356.581	800.000	-0.043	0.137
-355.566	143.235	0.085	-0.113
-354.552	-200.000	0.027	0.139
-353.537	122.985	-0.131	0.164
-352.523	-39.136	-0.144	0.076
-351.508	36.978	-0.333	0.294
-350.493	606.201	0.139	-0.345
-349.479	800.000	-0.030	-0.126
-348.464	-50.899	0.275	-0.129
-347.450	-200.000	-0.005	0.349
-346.435	-90.744	-0.198	0.057
-345.420	89.934	-0.051	-0.057
-344.406	310.013	0.065	0.122
-343.391	410.391	-0.084	-0.177
-342.377	39.177	0.202	-0.180
-341.362	800.000	0.052	-0.223
-340.348	214.802	-0.026	-0.041
-339.333	330.465	-0.180	-0.347
-338.318	-200.000	-0.031	0.291
-337.304	100.781	0.004	-0.005
-336.289	-50.735	-0.253	-0.119
-335.275	-92.387	0.390	-0.110
-334.260	-153.604	-0.285	-0.020
-333.245	-68.167	0.134	0.052
-332.231	42.450	-0.241	0.219
-331.216	-200.000	-0.013	0.300
-330.202	-200.000	-0.022	0.573
-329.187	102.576	0.098	0.114
-328.172	111.863	0.276	0.332
-327.158	-95.476	-0.292	-0.078
-326.143	-11.773	-0.403	-0.264
-325.129	-57.844	-0.348	0.152
-324.114	17.107	0.236	-0.187
-323.099	-25.891	-0.092	0.054
-322.085	19.539	0.090	-0.072
-321.070	132.165	0.213	0.274
-320.056	800.000	0.030	-0.114
-319.041	800.000	-0.066	0.266
-318.026	-4.501	-0.126	-0.087
-317.012	-200.000	0.002	0.029
-315.997	654.987	0.153	-0.391
-314.983	-90.301	-0.391	-0.113
-313.968	-146.719	0.175	0.015
-312.953	-200.000	-0.032	0.211
-311.939	48.408	0.208	0.194
-310.924	-200.000	0.009	0.211
-309.910	353.580	-0.171	0.339
-308.895	-200.000	0.007	0.115
-307.880	-200.000	0.084	0.445
-306.866	590.182	-0.119	0.293
-305.851	-200.000	0.015	0.072
-304.837	77.958	-0.070	0.074
-303.822	800.000	0.023	0.092
-302.807	1.174	0.300	0.215
-301.793	122.816	0.077	0.096
-300.778	800.000	-0.075	0.292
-299.764	-65.559	-0.077	0.031
-298.749	-119.798	-0.096	-0.016
-297.735	-200.000	0.066	-0.305
-296.720	-200.000	-0.006	-0.126
-295.705	-122.197	-0.188	-0.031
-294.691	-89.248	-0.182	0.054
-293.676	-76.979	0.241	-0.084
-292.662	129.796	0.080	-0.101
-291.647	-200.000	-0.032	-0.298
-290.632	-200.000	0.005	-0.138
-289.618	-74.661	-0.224	0.080
-288.603	-54.061	0.175	-0.079
-287.589	-10.325	0.270	-0.179
-286.574	-126.094	-0.226	-0.034
-285.559	-121.876	-0.119	-0.019
-284.545	-200.000	-0.276	0.000
-283.530	4.511	-0.163	0.119
-282.516	-200.000	-0.009	0.170
-281.501	-126.909	-0.293	-0.043
-280.486	-15.984	-0.069	-0.044
-279.472	695.065	-0.078	-0.205
-278.457	-55.188	0.157	0.070
-277.443	-77.230	0.184	-0.064
-276.428	380.992	0.074	-0.150
-275.413	-54.509	0.418	0.189
-274.399	280.824	-0.068	0.121
-273.384	219.034	-0.076	-0.122
-272.370	158.087	-0.068	-0.094
-271.355	800.000	-0.077	-0.225
-270.340	124.976	0.071	0.089
-269.326	-48.483	-0.251	0.120
-268.311	115.404	-0.182	-0.221
-267.297	244.235	0.079	0.132
-266.282	-94.431	0.187	0.051
-265.267	63.158	0.119	-0.119
-264.253	-200.000	-0.032	-0.277
-263.238	171.380	-0.128	-0.182
-262.224	-165.316	0.274	-0.012
-261.209	-200.000	0.016	-0.120
-260.195	95.095	0.245	-0.278
-259.180	205.045	0.101	0.156
-258.165	-6.713	-0.285	0.193
-257.151	235.370	-0.098	0.161
-256.136	123.438	0.106	0.132
-255.122	113.332	0.127	0.153
-254.107	800.000	-0.096	-0.267
-253.092	-200.000	0.038	0.173
-252.078	-200.000	0.053	-0.257
-251.063	-74.413	0.356	-0.128
-250.049	-200.000	-0.059	0.294
-249.034	-200.000	-0.008	0.218
-248.019	-100.786	-0.419	-0.103
-247.005	-168.830	-0.129	0.005
-245.990	800.000	-0.007	0.026
-244.976	14.752	-0.084	-0.065
-243.961	390.347	-0.031	0.065
-242.946	800.000	0.049	-0.209
-241.932	104.346	0.126	-0.148
-240.917	-148.964	0.133	0.011
-239.903	-89.078	0.101	-0.030
-238.888	-200.000	0.045	0.199
-237.873	-13.131	-0.045	0.029
-236.859	-120.289	-0.089	0.015
-235.844	800.000	-0.164	0.634
-234.830	166.061	0.026	0.037
-233.815	692.364	-0.072	-0.188
-232.800	133.464	0.085	-0.109
-231.786	-117.448	-0.135	0.024
-230.771	157.360	0.066	-0.091
-229.757	-60.338	0.100	0.042
-228.742	-70.147	0.139	-0.053
-227.727	117.409	0.182	-0.222
-226.713	-101.488	0.065	-0.016
-225.698	15.437	-0.258	-0.201
-224.684	617.913	-0.012	0.029
-223.669	-81.842	0.039	0.013
-222.655	62.330	-0.112	0.111
-221.640	92.066	-0.096	0.107
-220.625	75.034	-0.199	0.208
-219.611	800.000	-0.091	-0.304
-218.596	-124.856	-0.094	-0.014
-217.582	314.213	-0.066	0.124
-216.567	61.431	0.169	0.167
-215.552	-200.000	0.054	0.249
-214.538	266.917	0.225	-0.391
-213.523	-200.000	0.035	-0.349
-212.509	43.356	0.238	-0.216
-211.494	478.318	0.034	-0.076
-210.479	-200.000	-0.004	0.310
-209.465	-68.632	0.113	0.043
-208.450	-200.000	0.036	-0.441
-207.436	13.513	-0.154	0.119
-206.421	428.636	0.022	0.048
-205.406	-78.754	0.249	-0.084
-204.392	800.000	0.044	0.172
-203.377	291.988	-0.077	-0.139
-202.363	114.986	-0.241	0.292
-201.348	-170.410	-0.124	0.004
-200.333	-162.039	-0.153	0.008
-199.319	-200.000	-0.018	-0.116
-198.304	198.315	0.073	0.110
-197.290	33.798	0.324	-0.280
-196.275	-108.171	0.179	0.039
-195.260	-160.672	-0.113	0.006
-194.246	-94.552	-0.118	-0.032
-193.231	19.229	0.309	0.246
-192.217	49.035	-0.344	0.321
-191.202	39.664	-0.156	-0.139
-190.187	-8.986	0.168	-0.112
-189.173	-51.694	-0.014	0.007
-188.158	2.673	-0.170	-0.122
-187.144	146.041	-0.306	-0.407
-186.129	319.349	0.032	0.059
-185.114	222.066	-0.219	0.349
-184.100	-22.509	-0.231	0.139
-183.085	137.107	0.100	-0.129
-182.071	-200.000	0.064	-0.337
-181.056	65.305	0.181	-0.182
-180.042	-200.000	-0.006	0.111
-179.027	-3.568	0.205	0.141
-178.012	54.237	-0.089	0.085
-176.998	394.230	0.185	0.382
-175.983	46.665	0.260	-0.239
-174.969	34.556	-0.164	-0.142
-173.954	177.351	-0.237	-0.343
-172.939	58.198	0.116	-0.112
-171.925	341.808	0.143	-0.277
-170.910	-116.413	0.196	-0.036
-169.896	203.218	0.060	0.093
-168.881	238.726	-0.103	-0.170
-167.866	-30.643	0.156	0.087
-166.852	53.708	0.076	0.072
-165.837	211.759	-0.086	0.135
-164.823	-102.505	-0.225	0.053
-163.808	516.038	0.172	0.398
-162.793	730.701	0.057	-0.152
-161.779	283.936	-0.024	0.043
-160.764	800.000	0.044	-0.171
-159.750	21.024	0.298	-0.239
-158.735	-200.000	0.010	0.113
-157.720	-69.817	0.159	0.060
-156.706	-141.439	0.394	-0.040
-155.691	38.419	0.113	0.100
-154.677	-9.599	0.345	-0.228
-153.662	16.555	0.223	-0.175
-152.647	-44.621	-0.195	-0.096
-151.633	467.707	-0.122	0.270
-150.618	68.495	-0.108	0.110
-149.604	16.012	0.222	-0.173
-148.589	-80.834	0.135	-0.044
-147.574	-77.347	0.186	0.064
-146.560	-200.000	0.017	0.173
-145.545	203.923	-0.129	0.197
-144.531	67.008	0.067	-0.068
-143.516	-200.000	0.002	-0.175
-142.502	12.665	-0.335	-0.256
-141.487	384.025	-0.105	0.215
-140.472	78.416	-0.164	-0.174
-139.458	66.713	-0.199	-0.201
-138.443	143.520	0.077	0.102
-137.429	249.989	-0.086	0.145
-136.414	-106.438	-0.075	0.016
-135.399	510.242	-0.080	0.184
-134.385	-62.500	0.170	-0.070
-133.370	102.435	0.346	0.401
-132.356	423.664	-0.198	0.422
-131.341	-200.000	-0.004	-0.327
-130.326	-12.468	-0.201	-0.130
-129.312	712.021	-0.141	-0.371
-128.297	800.000	0.067	0.266
-127.283	-3.720	0.167	0.115
-126.268	-173.543	0.160	0.005
-125.253	-3.592	-0.236	-0.163
-124.239	30.539	-0.039	0.033
-123.224	-161.444	0.185	0.009
-122.210	16.913	0.070	0.055
-121.195	-141.714	0.196	-0.019
-120.180	-70.658	-0.240	0.090
