DTS Sentinel unit serial number:	SN413079Multiplexer serial number:	ORYXHardware model number:	OX4-SRSoftware version number:	ORYX F/W v4.00 Oryx Data Collector v3.7.2.0data status	okinstallation	princeton_trtdifferential loss correction	single-endedforward channel	channel 1reverse channel	N/Adate	2019/09/13time	06:38:35forward acquisition time	60.00reverse acquisition time	0.00gamma	496.2192k internal	0.2336k external	0.2336temperature offset calibration	1.0161default loss term (dB/km)	0.3790temperature slope calibration	1.0000multiplexer offset coefficient	1.0000multiplexer slope coefficient	1.0000fibre end	0.00T internal ref (°C)	26.02T ext. ref 1 (°C)	4.09T ext. ref 2 (°C)	20.62length (m)	temperature (°C)	Stokes	anti-Stokes-747.200	325.252	-0.055	0.105
-746.185	114.032	-0.076	0.093
-745.171	91.961	0.129	0.146
-744.156	72.275	-0.090	0.094
-743.142	-200.000	-0.025	-0.160
-742.127	-199.857	-0.227	-0.001
-741.112	800.000	0.049	0.156
-740.098	800.000	-0.076	0.320
-739.083	49.212	0.200	-0.189
-738.069	-200.000	-0.001	-0.055
-737.054	-200.000	-0.020	-0.310
-736.039	-57.731	-0.275	-0.121
-735.025	130.446	0.104	-0.134
-734.010	800.000	-0.052	-0.165
-732.996	-180.614	-0.123	-0.003
-731.981	190.421	0.132	-0.199
-730.966	200.330	-0.196	0.303
-729.952	71.435	-0.099	0.103
-728.937	-200.000	-0.009	-0.243
-727.923	-200.000	0.044	-0.239
-726.908	544.309	0.188	0.452
-725.894	44.689	-0.198	-0.182
-724.879	-87.108	-0.271	-0.083
-723.864	-78.461	0.392	0.135
-722.850	94.047	-0.301	-0.342
-721.835	299.910	0.141	0.261
-720.821	-54.867	0.139	-0.063
-719.806	29.585	-0.115	-0.098
-718.791	-49.743	-0.085	-0.040
-717.777	118.206	0.144	-0.179
-716.762	-200.000	0.004	-0.204
-715.748	-130.755	-0.397	-0.054
-714.733	-155.910	0.252	-0.016
-713.718	-113.412	-0.179	-0.035
-712.704	792.543	0.040	0.110
-711.689	-69.968	0.059	-0.023
-710.675	-61.430	0.108	-0.046
-709.660	800.000	0.068	-0.283
-708.645	-20.227	-0.171	-0.106
-707.631	-144.195	-0.057	-0.005
-706.616	61.305	-0.122	0.121
-705.602	6.330	0.057	0.042
-704.587	67.005	0.141	-0.144
-703.572	93.184	-0.108	0.122
-702.558	-81.900	0.151	0.050
-701.543	-124.393	0.215	-0.034
-700.529	19.076	0.333	0.268
-699.514	23.580	-0.113	-0.093
-698.499	132.996	-0.099	0.129
-697.485	-88.163	0.194	0.058
-696.470	180.809	-0.032	0.047
-695.456	-200.000	0.054	-0.259
-694.441	-200.000	0.017	-0.223
-693.426	-116.941	0.123	0.023
-692.412	-8.660	0.261	-0.175
-691.397	-4.791	0.099	0.068
-690.383	-159.379	-0.122	0.007
-689.368	800.000	-0.082	0.291
-688.354	-89.544	0.206	-0.061
-687.339	-110.590	-0.208	0.043
-686.324	-73.136	-0.277	-0.102
-685.310	-112.093	0.435	0.088
-684.295	404.827	0.149	-0.314
-683.281	800.000	0.048	0.139
-682.266	9.599	0.113	0.086
-681.251	599.756	0.049	0.123
-680.237	-200.000	-0.005	-0.058
-679.222	92.324	0.053	0.060
-678.208	222.393	0.108	0.174
-677.193	-88.739	-0.204	-0.061
-676.178	32.400	0.124	0.107
-675.164	-200.000	0.058	-0.452
-674.149	-200.000	-0.014	0.072
-673.135	219.454	-0.078	0.125
-672.120	315.559	-0.112	-0.212
-671.105	-200.000	0.011	0.083
-670.091	-157.586	0.138	0.008
-669.076	-165.526	0.144	0.006
-668.062	295.757	-0.053	-0.097
-667.047	69.865	0.083	0.086
-666.032	100.472	0.133	-0.155
-665.018	-200.000	0.028	-0.189
-664.003	84.040	-0.134	-0.147
-662.989	-200.000	0.048	-0.353
-661.974	161.074	0.101	-0.141
-660.959	-138.765	-0.392	-0.043
-659.945	-43.285	0.116	0.059
-658.930	360.791	0.111	-0.222
-657.916	800.000	-0.032	-0.098
-656.901	26.209	-0.308	0.257
-655.886	-82.195	0.244	-0.080
-654.872	-33.539	-0.232	0.128
-653.857	202.495	0.070	-0.109
-652.843	800.000	0.040	-0.120
-651.828	-200.000	0.030	0.143
-650.814	-134.432	0.212	0.026
-649.799	203.642	-0.040	0.062
-648.784	-36.829	-0.137	-0.073
-647.770	300.250	0.062	-0.115
-646.755	-115.071	-0.425	0.081
-645.741	424.292	0.225	-0.485
-644.726	7.043	0.204	-0.152
-643.711	-58.515	-0.230	0.100
-642.697	64.370	0.188	-0.190
-641.682	-48.418	-0.446	-0.215
-640.668	800.000	0.017	-0.068
-639.653	-40.704	0.120	-0.062
-638.638	41.899	-0.368	0.334
-637.624	-32.538	-0.331	-0.185
-636.609	-200.000	-0.043	-0.253
-635.595	-144.750	0.257	-0.024
-634.580	-142.938	-0.088	-0.009
-633.565	-134.015	0.196	-0.024
-632.551	-120.059	-0.420	-0.072
-631.536	-22.998	0.127	0.076
-630.522	206.090	-0.168	0.261
-629.507	-13.904	0.248	-0.160
-628.492	768.909	-0.144	-0.391
-627.478	-79.109	-0.079	0.027
-626.463	800.000	-0.033	0.097
-625.449	-155.570	-0.132	-0.008
-624.434	-145.751	-0.228	-0.020
-623.419	-147.879	0.149	0.012
-622.405	281.202	-0.079	0.141
-621.390	-17.100	-0.206	-0.130
-620.376	-200.000	-0.022	0.201
-619.361	56.675	-0.168	0.163
-618.346	-187.651	0.210	-0.003
-617.332	138.555	0.148	-0.194
-616.317	-200.000	0.044	0.198
-615.303	-200.000	-0.032	-0.297
-614.288	800.000	-0.038	0.127
-613.273	122.124	-0.137	0.171
-612.259	714.948	-0.077	0.205
-611.244	-200.000	-0.018	0.236
-610.230	-92.751	0.045	-0.013
-609.215	-1.596	0.118	0.083
-608.201	-14.936	0.272	-0.174
-607.186	711.346	-0.019	0.050
-606.171	-112.564	0.233	0.046
-605.157	187.190	-0.191	0.285
-604.142	-58.196	-0.415	0.181
-603.128	-200.000	-0.007	0.177
-602.113	-177.448	0.208	0.005
-601.098	-200.000	-0.023	-0.198
-600.084	38.688	-0.225	0.201
-599.069	-97.306	-0.126	-0.033
-598.055	97.927	-0.206	-0.236
-597.040	-200.000	-0.033	0.294
-596.025	263.419	-0.033	0.056
-595.011	-107.462	-0.232	-0.051
-593.996	-200.000	0.015	-0.357
-592.982	-93.859	-0.175	-0.048
-591.967	-198.966	0.117	0.001
-590.952	-135.564	-0.191	-0.023
-589.938	800.000	0.101	-0.325
-588.923	-37.994	0.362	-0.192
-587.909	-48.525	-0.473	0.227
-586.894	-109.081	-0.088	-0.019
-585.879	85.583	0.065	0.071
-584.865	-52.321	-0.114	0.053
-583.850	-31.588	0.135	-0.076
-582.836	60.490	-0.276	0.273
-581.821	-128.765	-0.206	0.029
-580.806	800.000	-0.109	-0.378
-579.792	-108.748	-0.130	0.028
-578.777	91.816	0.235	0.264
-577.763	81.791	-0.080	-0.087
-576.748	-10.629	0.131	-0.087
-575.733	319.685	0.113	0.214
-574.719	0.117	0.176	-0.125
-573.704	-200.000	-0.006	-0.142
-572.690	61.963	-0.090	-0.090
-571.675	20.163	-0.278	0.224
-570.661	419.272	-0.021	-0.045
-569.646	-116.017	0.118	-0.022
-568.631	-168.042	-0.306	-0.012
-567.617	-77.156	0.109	-0.038
-566.602	800.000	-0.056	0.198
-565.588	-105.872	-0.290	0.065
-564.573	-60.531	-0.220	-0.093
-563.558	-200.000	0.003	0.317
-562.544	161.294	-0.054	-0.076
-561.529	-41.889	0.255	-0.130
-560.515	-200.000	-0.001	-0.259
-559.500	65.003	0.152	0.153
-558.485	32.974	-0.164	0.142
-557.471	22.011	0.144	0.117
-556.456	116.790	-0.067	-0.082
-555.442	239.973	-0.077	0.128
-554.427	-88.571	0.200	-0.060
-553.412	800.000	-0.094	0.393
-552.398	-200.000	-0.031	0.339
-551.383	407.804	-0.049	-0.103
-550.369	-106.537	-0.115	-0.026
-549.354	-100.747	-0.180	-0.044
-548.339	-200.000	-0.054	0.386
-547.325	-99.255	0.278	-0.070
-546.310	-22.733	-0.346	0.208
-545.296	-200.000	0.036	-0.215
-544.281	-25.421	-0.215	0.127
-543.266	800.000	-0.067	0.194
-542.252	102.969	0.114	0.133
-541.237	-200.000	-0.026	-0.260
-540.223	800.000	-0.057	-0.199
-539.208	18.097	0.303	0.241
-538.193	427.063	0.062	0.132
-537.179	161.514	0.167	0.232
-536.164	-38.369	-0.247	0.130
-535.150	800.000	0.034	-0.148
-534.135	265.491	-0.131	0.227
-533.121	316.252	0.157	-0.295
-532.106	34.395	-0.406	-0.353
-531.091	11.625	0.205	-0.156
-530.077	269.170	-0.177	0.309
-529.062	42.469	-0.080	-0.072
-528.048	693.208	-0.062	-0.161
-527.033	368.669	-0.073	0.148
-526.018	54.287	-0.013	0.013
-525.004	-74.089	0.509	-0.184
-523.989	800.000	-0.101	-0.381
-522.975	-200.000	-0.042	-0.343
-521.960	800.000	0.059	0.203
-520.945	-200.000	0.011	-0.121
-519.931	390.342	0.141	0.291
-518.916	-200.000	0.003	0.098
-517.902	43.485	-0.105	0.096
-516.887	800.000	-0.029	-0.091
-515.872	-166.995	0.145	0.006
-514.858	-200.000	0.047	0.215
-513.843	-156.319	-0.292	0.018
-512.829	-149.276	0.029	-0.002
-511.814	192.394	-0.162	-0.244
-510.799	-50.433	0.126	0.059
-509.785	528.147	-0.178	-0.418
-508.770	-91.172	0.041	0.012
-507.756	-64.366	0.026	0.011
-506.741	-200.000	-0.016	0.082
-505.726	-66.144	-0.177	0.070
-504.712	66.339	0.019	0.019
-503.697	-65.574	-0.435	-0.174
-502.683	-200.000	-0.040	-0.327
-501.668	-130.577	-0.184	-0.025
-500.653	32.122	0.263	-0.225
-499.639	-200.000	-0.005	0.072
-498.624	-121.925	0.022	-0.004
-497.610	-29.249	0.362	0.206
-496.595	156.178	0.147	0.202
-495.581	642.759	0.081	-0.206
-494.566	-78.446	-0.166	-0.057
-493.551	-200.000	-0.006	0.071
-492.537	48.144	0.164	-0.153
-491.522	265.278	0.154	-0.268
-490.508	-15.019	0.116	-0.074
-489.493	800.000	-0.055	-0.199
-488.478	-97.133	-0.346	-0.090
-487.464	800.000	0.025	-0.084
-486.449	-139.983	0.148	0.015
-485.435	-200.000	0.090	-0.406
-484.420	48.151	0.373	-0.347
-483.405	83.120	0.162	-0.175
-482.391	-51.298	0.228	-0.106
-481.376	-200.000	0.034	0.315
-480.362	-47.603	-0.118	-0.057
-479.347	-14.176	0.194	0.125
-478.332	-188.900	-0.083	-0.001
-477.318	3.820	0.146	0.106
-476.303	-173.492	-0.192	-0.006
-475.289	629.470	-0.045	0.114
-474.274	332.398	-0.150	-0.287
-473.259	221.015	0.062	0.098
-472.245	-120.945	0.309	0.052
-471.230	-29.560	-0.101	-0.058
-470.216	800.000	0.054	0.153
-469.201	-44.825	0.251	-0.125
-468.186	-200.000	-0.009	-0.093
-467.172	21.447	0.137	0.111
-466.157	336.729	0.188	-0.363
-465.143	3.345	-0.211	-0.153
-464.128	174.915	0.096	-0.139
-463.113	800.000	-0.035	-0.150
-462.099	117.618	-0.175	0.215
-461.084	35.938	-0.247	0.216
-460.070	20.302	0.163	0.131
-459.055	-200.000	0.044	-0.398
-458.040	-86.766	0.130	-0.039
-457.026	185.086	-0.005	0.008
-456.011	318.805	0.032	0.060
-454.997	521.213	-0.049	-0.113
-453.982	-168.522	0.152	-0.006
-452.968	-67.584	0.267	-0.104
-451.953	-200.000	0.024	-0.184
-450.938	44.329	0.080	0.073
-449.924	-200.000	0.020	0.468
-448.909	-5.292	-0.207	0.141
-447.895	-78.033	-0.255	0.087
-446.880	-200.000	-0.052	-0.347
-445.865	-200.000	-0.044	-0.210
-444.851	800.000	-0.014	-0.048
-443.836	-5.235	-0.177	0.121
-442.822	-200.000	-0.046	-0.241
-441.807	216.628	-0.133	-0.210
-440.792	-198.941	0.223	-0.001
-439.778	432.360	0.092	0.198
-438.763	800.000	-0.167	0.512
-437.749	266.558	0.052	-0.090
-436.734	-68.437	-0.249	0.096
-435.719	-124.405	-0.147	-0.023
-434.705	87.209	-0.219	-0.241
-433.690	113.874	-0.154	-0.185
-432.676	-35.468	-0.269	0.145
-431.661	-18.468	0.277	0.172
-430.646	-101.602	-0.103	-0.025
-429.632	-200.000	-0.008	-0.121
-428.617	-147.846	-0.102	-0.008
-427.603	-68.496	0.080	-0.031
-426.588	-35.604	0.298	0.160
-425.573	-88.685	-0.297	-0.088
-424.559	-144.729	0.135	-0.012
-423.544	-200.000	0.031	-0.323
-422.530	800.000	0.081	-0.222
-421.515	-143.732	-0.155	0.015
-420.500	-96.112	0.225	-0.059
-419.486	-61.158	0.342	0.143
-418.471	-126.957	0.153	0.022
-417.457	490.772	-0.038	-0.086
-416.442	-29.467	0.010	-0.006
-415.428	-142.924	-0.095	0.009
-414.413	449.652	-0.113	-0.247
-413.398	-99.519	-0.405	-0.101
-412.384	-77.413	-0.248	-0.085
-411.369	-18.462	-0.280	-0.173
-410.355	-200.000	0.005	0.073
-409.340	-127.221	0.270	0.039
-408.325	-107.802	0.416	0.090
-407.311	-65.274	-0.206	0.082
-406.296	359.197	-0.066	0.131
-405.282	1.373	-0.068	0.048
-404.267	278.469	0.097	0.171
-403.252	205.365	-0.216	0.332
-402.238	289.954	0.067	0.120
-401.223	339.563	0.104	0.200
-400.209	-39.694	0.078	0.040
-399.194	255.795	-0.076	0.129
-398.179	-21.452	-0.217	0.131
-397.165	77.925	0.177	0.187
-396.150	320.469	-0.033	-0.061
-395.136	800.000	-0.071	0.274
-394.121	-25.290	0.226	-0.132
-393.106	800.000	-0.019	-0.065
-392.092	-8.080	0.117	-0.078
-391.077	-174.156	-0.204	-0.006
-390.063	-59.447	0.279	-0.119
-389.048	-104.555	-0.178	-0.041
-388.033	-200.000	0.030	0.282
-387.019	-200.000	-0.018	0.425
-386.004	-200.000	-0.034	0.190
-384.990	-46.809	0.084	-0.041
-383.975	74.319	0.178	-0.186
-382.960	-14.359	0.204	0.130
-381.946	703.177	-0.009	-0.022
-380.931	800.000	-0.049	0.166
-379.917	335.009	-0.086	-0.165
-378.902	-74.817	0.222	-0.079
-377.888	1.751	-0.043	0.031
-376.873	-87.489	-0.102	0.030
-375.858	-133.591	0.332	-0.041
-374.844	456.331	0.076	-0.167
-373.829	155.617	-0.035	-0.048
-372.815	-75.883	-0.192	-0.067
-371.800	-146.651	0.143	0.012
-370.785	41.142	0.139	0.124
-369.771	130.757	-0.170	-0.216
-368.756	438.955	-0.122	-0.265
-367.742	-10.187	0.148	-0.097
-366.727	266.364	0.211	-0.365
-365.712	-3.118	-0.320	-0.221
-364.698	30.406	0.157	0.133
-363.683	43.422	0.047	-0.043
-362.669	111.460	-0.167	0.199
-361.654	314.771	0.032	0.059
-360.639	-200.000	-0.028	0.166
-359.625	474.572	0.167	-0.372
-358.610	158.676	0.086	-0.118
-357.596	36.443	-0.181	-0.158
-356.581	86.814	-0.132	0.144
-355.566	-178.643	0.229	-0.005
-354.552	800.000	0.015	0.057
-353.537	-200.000	0.006	0.268
-352.523	59.333	-0.133	0.129
-351.508	800.000	0.035	0.138
-350.493	-200.000	-0.015	-0.213
-349.479	800.000	-0.024	-0.090
-348.464	-200.000	0.085	-0.414
-347.450	-85.403	0.099	0.030
-346.435	-13.748	-0.052	0.033
-345.420	-189.209	0.226	0.003
-344.406	-93.250	0.350	-0.096
-343.391	219.854	0.062	0.099
-342.377	800.000	-0.045	-0.183
-341.362	371.367	-0.117	0.234
-340.348	477.093	0.153	-0.343
-339.333	-20.079	-0.049	-0.030
-338.318	497.485	-0.032	0.074
-337.304	-15.981	-0.333	0.210
-336.289	115.665	0.084	0.102
-335.275	-102.278	-0.091	0.022
-334.260	331.823	-0.024	0.046
-333.245	44.004	0.164	0.148
-332.231	328.400	0.117	0.223
-331.216	1.777	-0.172	-0.122
-330.202	-163.464	0.356	-0.017
-329.187	-46.090	-0.657	-0.320
-328.172	-45.632	0.091	-0.044
-327.158	-72.869	-0.049	-0.018
-326.143	-17.098	0.204	-0.127
-325.129	55.062	0.166	0.158
-324.114	68.735	0.151	0.154
-323.099	-72.386	-0.072	-0.026
-322.085	800.000	0.060	0.184
-321.070	-43.950	0.382	0.190
-320.056	800.000	-0.076	0.291
-319.041	171.038	0.162	-0.229
-318.026	-189.748	-0.273	-0.003
-317.012	800.000	0.093	0.294
-315.997	-102.301	-0.230	0.055
-314.983	231.765	-0.067	-0.108
-313.968	-200.000	0.022	0.123
-312.953	-53.445	0.309	0.140
-311.939	-200.000	0.060	0.309
-310.924	44.864	0.157	-0.143
-309.910	800.000	-0.025	-0.068
-308.895	32.287	-0.199	-0.170
-307.880	-119.413	-0.300	-0.051
-306.866	179.780	0.043	0.062
-305.851	-11.120	-0.166	-0.108
-304.837	800.000	0.049	0.146
-303.822	-47.074	0.201	-0.097
-302.807	760.114	0.018	-0.049
-301.793	297.120	0.145	0.263
-300.778	215.513	0.136	-0.214
-299.764	225.034	0.100	-0.160
-298.749	-111.838	-0.211	0.042
-297.735	-32.523	0.143	-0.079
-296.720	800.000	0.046	-0.189
-295.705	-146.291	0.489	0.042
-294.691	-43.878	0.221	-0.110
-293.676	-89.218	-0.172	-0.050
-292.662	-169.488	-0.135	0.005
-291.647	-200.000	0.003	-0.100
-290.632	-13.863	0.037	-0.024
-289.618	756.417	0.055	0.146
-288.603	-93.875	0.389	0.106
-287.589	-138.519	-0.193	0.021
-286.574	800.000	0.035	0.111
-285.559	-150.607	-0.175	-0.013
-284.545	83.445	0.208	0.224
-283.530	151.873	-0.023	0.031
-282.516	351.195	-0.103	-0.200
-281.501	20.721	0.157	-0.126
-280.486	56.056	-0.067	-0.065
-279.472	163.607	0.095	-0.131
-278.457	-56.717	-0.141	0.062
-277.443	-78.232	0.098	0.033
-276.428	174.683	-0.119	0.169
-275.413	800.000	-0.065	-0.198
-274.399	800.000	0.040	-0.109
-273.384	152.069	-0.194	0.262
-272.370	-200.000	0.048	0.000
-271.355	-88.590	0.342	-0.100
-270.340	765.692	0.060	0.161
-269.326	32.555	-0.141	0.121
-268.311	-104.274	0.126	0.029
-267.297	332.291	-0.101	-0.192
-266.282	-200.000	0.053	0.566
-265.267	191.000	0.162	-0.241
-264.253	581.014	-0.008	-0.020
-263.238	-128.003	-0.460	-0.065
-262.224	-66.024	-0.140	0.055
-261.209	433.456	0.149	-0.318
-260.195	-120.651	-0.054	-0.009
-259.180	166.769	0.104	-0.145
-258.165	-106.733	-0.296	-0.065
-257.151	-51.126	0.120	-0.055
-256.136	800.000	0.134	-0.385
-255.122	-85.930	0.423	0.129
-254.107	58.648	-0.034	-0.033
-253.092	-200.000	0.027	0.311
-252.078	30.097	0.185	0.155
-251.063	375.954	-0.164	0.330
-250.049	87.217	0.105	0.115
-249.034	-69.740	-0.237	-0.089
-248.019	134.202	0.157	-0.200
-247.005	25.884	-0.115	-0.094
-245.990	-36.047	-0.183	-0.097
-244.976	-74.755	0.108	0.038
-243.961	-200.000	-0.005	0.174
-242.946	800.000	-0.050	0.140
-241.932	-163.498	0.255	-0.012
-240.917	-200.000	-0.020	-0.090
-239.903	102.675	0.210	-0.242
-238.888	-78.019	-0.283	-0.096
-237.873	159.671	-0.097	-0.134
-236.859	157.359	0.305	-0.416
-235.844	7.772	0.310	0.229
-234.830	800.000	-0.038	0.103
-233.815	-200.000	-0.038	-0.224
-232.800	-200.000	-0.062	-0.432
-231.786	-120.735	0.371	0.062
-230.771	-13.686	0.142	-0.091
-229.757	-28.264	0.285	-0.162
-228.742	-119.500	-0.197	-0.034
-227.727	240.531	-0.225	0.369
-226.713	452.028	0.098	-0.213
-225.698	278.800	-0.050	-0.087
-224.684	262.786	-0.154	-0.263
-223.669	25.927	0.061	0.050
-222.655	450.245	-0.187	0.406
-221.640	800.000	0.051	-0.211
-220.625	270.745	0.156	-0.270
-219.611	56.708	-0.086	-0.082
-218.596	800.000	-0.089	0.360
-217.582	35.746	0.080	0.069
-216.567	8.454	0.470	0.348
-215.552	153.195	-0.032	-0.043
-214.538	800.000	0.024	0.076
-213.523	-200.000	0.014	-0.067
-212.509	-123.056	0.218	0.034
-211.494	13.565	-0.261	0.199
-210.479	-116.598	-0.304	0.055
-209.465	335.501	0.072	0.138
-208.450	57.460	-0.272	0.261
-207.436	304.734	0.093	0.170
-206.421	-67.815	0.223	-0.086
-205.406	-72.183	-0.165	0.060
-204.392	800.000	0.030	-0.125
-203.377	185.571	0.129	-0.189
-202.363	-17.887	-0.392	-0.242
-201.348	58.217	0.101	0.097
-200.333	32.584	0.193	0.164
-199.319	-66.232	-0.153	-0.060
-198.304	158.208	-0.099	-0.135
-197.290	-83.450	0.070	0.022
-196.275	-110.700	0.132	-0.027
-195.260	-141.048	-0.382	0.038
-194.246	232.594	-0.168	0.271
-193.231	69.429	0.033	-0.033
-192.217	800.000	-0.053	-0.194
-191.202	-125.348	-0.167	-0.025
-190.187	800.000	-0.082	0.238
-189.173	775.549	-0.094	-0.252
-188.158	-200.000	-0.002	0.345
-187.144	47.075	0.259	0.237
-186.129	-51.811	-0.356	0.163
-185.114	-132.157	0.365	-0.046
-184.100	-200.000	0.036	0.225
-183.085	-176.183	-0.139	-0.004
-182.071	13.868	0.056	0.043
-181.056	112.778	-0.264	0.314
-180.042	-200.000	-0.029	0.281
-179.027	-65.247	0.324	0.128
-178.012	228.474	0.020	-0.033
-176.998	181.870	0.124	0.180
-175.983	800.000	-0.054	0.169
-174.969	-54.427	-0.177	0.079
-173.954	6.488	-0.084	-0.061
-172.939	111.746	0.071	-0.084
-171.925	-129.893	0.217	-0.029
-170.910	230.665	-0.140	0.225
-169.896	-120.925	0.218	-0.036
-168.881	78.173	0.264	0.276
-167.866	800.000	0.074	-0.225
-166.852	800.000	-0.132	0.434
-165.837	69.207	0.178	-0.180
-164.823	-111.003	0.163	-0.033
-163.808	40.700	-0.355	-0.314
-162.793	703.449	-0.070	0.181
-161.779	169.333	0.098	-0.137
-160.764	-41.159	0.243	-0.123
-159.750	-200.000	0.060	0.262
-158.735	800.000	-0.069	0.236
-157.720	54.733	0.049	0.047
-156.706	166.420	0.096	0.133
-155.691	-66.511	-0.134	0.052
-154.677	213.565	0.165	-0.256
-153.662	-28.255	0.130	0.074
-152.647	-24.283	0.417	-0.244
-151.633	-27.874	-0.213	0.121
-150.618	-200.000	-0.018	0.199
-149.604	312.761	0.041	0.076
-148.589	9.300	0.056	-0.042
-147.574	90.314	0.097	-0.106
-146.560	97.716	-0.142	-0.160
-145.545	-200.000	0.025	-0.113
-144.531	800.000	0.128	0.393
-143.516	-97.084	0.141	0.036
-142.502	-92.480	-0.213	0.059
-141.487	-12.555	0.179	-0.115
-140.472	528.666	0.083	0.192
-139.458	-87.555	-0.228	0.068
-138.443	800.000	0.017	-0.064
-137.429	-200.000	-0.000	0.220
-136.414	-3.246	0.224	0.153
-135.399	-26.082	-0.226	0.130
-134.385	7.152	0.161	0.118
-133.370	-151.794	-0.326	0.023
-132.356	365.835	0.146	0.289
-131.341	-200.000	-0.020	-0.101
-130.326	800.000	0.044	-0.172
-129.312	264.843	0.220	-0.376
-128.297	419.786	0.129	-0.270
-127.283	-12.153	-0.060	0.039
-126.268	-200.000	-0.008	-0.129
-125.253	-57.359	-0.188	-0.081
-124.239	97.562	-0.224	-0.252
-123.224	-62.092	0.183	0.075
-122.210	-20.686	0.084	0.051
-121.195	-200.000	-0.033	0.244
