DTS Sentinel unit serial number:	SN413079Multiplexer serial number:	ORYXHardware model number:	OX4-SRSoftware version number:	ORYX F/W v4.00 Oryx Data Collector v3.7.2.0data status	okinstallation	princeton_trtdifferential loss correction	single-endedforward channel	channel 1reverse channel	N/Adate	2019/09/16time	19:38:35forward acquisition time	60.00reverse acquisition time	0.00gamma	496.2192k internal	0.2317k external	0.2317temperature offset calibration	0.9949default loss term (dB/km)	0.3790temperature slope calibration	1.0000multiplexer offset coefficient	1.0000multiplexer slope coefficient	1.0000fibre end	0.00T internal ref (°C)	34.19T ext. ref 1 (°C)	0.05T ext. ref 2 (°C)	27.11length (m)	temperature (°C)	Stokes	anti-Stokes-747.200	315.534	-0.117	0.223
-746.185	-35.947	0.135	0.074
-745.171	5.572	0.174	-0.130
-744.156	800.000	0.185	0.616
-743.142	-200.000	-0.011	-0.252
-742.127	16.930	-0.104	0.083
-741.112	781.313	0.053	-0.147
-740.098	-9.248	-0.134	0.090
-739.083	-200.000	0.019	0.104
-738.069	471.083	-0.087	-0.198
-737.054	15.143	-0.148	0.117
-736.039	-62.626	0.176	-0.074
-735.025	-128.221	-0.182	-0.026
-734.010	162.813	-0.306	0.434
-732.996	-125.808	-0.090	-0.014
-731.981	-51.252	-0.277	0.131
-730.966	-113.287	0.156	-0.031
-729.952	-55.791	-0.108	-0.049
-728.937	316.705	0.147	-0.282
-727.923	26.897	0.167	0.142
-726.908	-200.000	0.000	-0.201
-725.894	115.294	-0.091	0.112
-724.879	659.349	-0.071	-0.185
-723.864	337.350	0.075	0.148
-722.850	618.836	-0.185	0.471
-721.835	-77.152	-0.093	-0.033
-720.821	-107.591	-0.090	-0.020
-719.806	11.706	0.108	-0.084
-718.791	800.000	-0.056	-0.227
-717.777	-92.431	-0.264	-0.075
-716.762	-200.000	0.003	0.084
-715.748	95.516	0.038	0.044
-714.733	12.532	0.128	0.100
-713.718	-200.000	0.002	0.188
-712.704	-175.530	0.263	0.007
-711.689	0.415	-0.129	-0.093
-710.675	-47.611	-0.166	0.081
-709.660	-200.000	0.011	0.120
-708.645	52.946	-0.155	0.150
-707.631	-79.065	0.273	-0.094
-706.616	-25.619	-0.306	-0.183
-705.602	32.762	-0.189	0.165
-704.587	64.311	0.063	0.064
-703.572	-24.267	-0.226	0.136
-702.558	49.965	0.071	0.068
-701.543	-103.070	-0.169	0.040
-700.529	-200.000	0.015	0.092
-699.514	277.185	0.107	0.192
-698.499	-189.629	-0.310	-0.004
-697.485	-19.455	0.135	0.085
-696.470	-119.058	-0.206	-0.036
-695.456	-37.337	-0.224	-0.121
-694.441	208.346	0.200	0.317
-693.426	621.699	0.085	-0.216
-692.412	800.000	-0.109	0.404
-691.397	-39.004	-0.173	0.092
-690.383	-49.417	-0.087	-0.042
-689.368	659.973	0.020	0.053
-688.354	213.845	-0.026	-0.042
-687.339	284.601	0.063	0.115
-686.324	179.488	-0.085	0.126
-685.310	-161.453	-0.190	-0.010
-684.295	149.036	0.123	0.168
-683.281	39.075	0.104	0.094
-682.266	800.000	0.075	0.288
-681.251	171.875	0.106	0.154
-680.237	81.908	-0.111	-0.122
-679.222	89.328	0.186	-0.209
-678.208	320.880	0.087	0.167
-677.193	121.633	-0.133	-0.167
-676.178	205.647	-0.087	0.137
-675.164	-200.000	-0.016	-0.269
-674.149	305.318	-0.124	-0.233
-673.135	37.553	-0.170	-0.152
-672.120	-119.946	-0.212	-0.037
-671.105	79.974	0.150	0.163
-670.091	180.393	-0.056	-0.082
-669.076	143.193	-0.037	0.050
-668.062	-200.000	-0.024	-0.119
-667.047	-19.178	0.224	0.140
-666.032	330.743	0.125	-0.244
-665.018	35.148	0.195	0.172
-664.003	-115.256	0.243	-0.046
-662.989	-174.992	-0.350	0.010
-661.974	-124.390	-0.301	-0.047
-660.959	31.541	-0.201	0.174
-659.945	-200.000	-0.033	0.194
-658.930	96.190	0.304	-0.350
-657.916	270.205	-0.177	0.313
-656.901	-114.070	-0.158	0.031
-655.886	-20.908	-0.167	-0.104
-654.872	-25.319	-0.272	-0.162
-653.857	147.658	-0.073	0.099
-652.843	-131.846	0.251	-0.033
-651.828	-200.000	0.008	-0.139
-650.814	-16.622	0.334	0.213
-649.799	-66.050	-0.195	0.079
-648.784	-200.000	0.010	-0.341
-647.770	144.919	-0.043	-0.058
-646.755	-100.587	0.161	0.040
-645.741	-200.000	-0.003	-0.077
-644.726	800.000	-0.026	0.110
-643.711	-53.899	0.174	-0.080
-642.697	-1.669	0.051	0.036
-641.682	-130.540	-0.222	0.030
-640.668	85.634	0.156	-0.172
-639.653	-200.000	-0.000	0.151
-638.638	800.000	0.063	-0.191
-637.624	-145.997	0.136	0.012
-636.609	109.843	-0.038	-0.045
-635.595	279.302	0.074	-0.133
-634.580	24.599	-0.265	-0.221
-633.565	-115.634	-0.313	-0.059
-632.551	-200.000	0.022	-0.170
-631.536	-200.000	0.006	-0.278
-630.522	325.547	-0.210	-0.405
-629.507	124.112	-0.080	-0.102
-628.492	-145.924	-0.290	0.026
-627.478	66.285	0.080	0.081
-626.463	-23.943	-0.328	-0.198
-625.449	-58.501	0.220	-0.096
-624.434	800.000	-0.086	-0.313
-623.419	480.932	-0.037	-0.083
-622.405	-41.690	0.024	0.012
-621.390	192.615	-0.121	0.184
-620.376	366.481	-0.037	0.074
-619.361	800.000	-0.069	-0.294
-618.346	-200.000	0.034	0.217
-617.332	106.700	-0.154	-0.184
-616.317	-200.000	0.064	-0.287
-615.303	-80.903	0.140	0.047
-614.288	-101.472	-0.188	-0.046
-613.273	-95.374	-0.153	-0.041
-612.259	800.000	0.032	-0.089
-611.244	800.000	-0.081	-0.355
-610.230	-200.000	-0.013	-0.299
-609.215	-117.748	0.208	-0.038
-608.201	-200.000	0.093	-0.430
-607.186	800.000	-0.035	-0.143
-606.171	171.960	0.245	-0.354
-605.157	280.264	-0.110	0.198
-604.142	-200.000	0.022	0.200
-603.128	4.413	-0.094	0.070
-602.113	-31.044	-0.102	-0.058
-601.098	-44.137	0.330	-0.167
-600.084	211.582	-0.072	-0.114
-599.069	-73.677	0.248	-0.091
-598.055	-43.219	0.238	-0.122
-597.040	-108.731	-0.355	-0.077
-596.025	-7.995	0.169	-0.114
-595.011	800.000	-0.066	-0.207
-593.996	260.896	-0.146	-0.255
-592.982	-200.000	-0.006	-0.300
-591.967	50.053	0.253	-0.241
-590.952	192.491	0.184	0.279
-589.938	-96.140	0.158	0.042
-588.923	102.448	0.207	-0.244
-587.909	684.208	0.091	-0.239
-586.894	-87.493	-0.041	0.012
-585.879	241.532	0.099	0.167
-584.865	800.000	-0.046	0.159
-583.850	800.000	-0.078	-0.261
-582.836	-33.367	0.054	-0.030
-581.821	-122.237	0.113	0.019
-580.806	244.436	0.022	-0.038
-579.792	-73.801	-0.191	-0.070
-578.777	140.455	-0.070	-0.093
-577.763	800.000	-0.110	-0.447
-576.748	-77.812	-0.162	0.056
-575.733	-146.485	0.065	-0.006
-574.719	498.988	0.105	-0.243
-573.704	36.096	0.087	0.077
-572.690	-26.739	0.100	-0.059
-571.675	74.460	-0.085	0.090
-570.661	-160.398	0.290	0.016
-569.646	-93.645	0.230	0.064
-568.631	800.000	-0.100	0.279
-567.617	82.564	-0.202	0.220
-566.602	148.973	-0.109	-0.148
-565.588	21.789	0.267	-0.219
-564.573	-105.310	-0.260	-0.060
-563.558	-91.138	0.271	-0.078
-562.544	12.298	-0.182	-0.141
-561.529	286.823	0.113	-0.205
-560.515	237.998	0.110	-0.183
-559.500	800.000	-0.061	-0.187
-558.485	-29.212	0.223	-0.129
-557.471	-28.323	-0.159	0.092
-556.456	800.000	-0.040	0.139
-555.442	-85.765	-0.105	-0.033
-554.427	-26.715	-0.240	0.141
-553.412	-200.000	0.054	0.396
-552.398	-61.686	-0.114	0.048
-551.383	599.514	-0.119	0.297
-550.369	320.633	-0.130	0.249
-549.354	-19.864	-0.031	0.020
-548.339	126.599	-0.128	-0.163
-547.325	113.590	0.288	0.351
-546.310	-200.000	0.002	-0.014
-545.296	-103.336	-0.148	-0.035
-544.281	800.000	-0.084	-0.286
-543.266	-112.684	-0.258	-0.052
-542.252	74.495	-0.135	0.142
-541.237	-9.462	0.044	-0.029
-540.223	-76.710	-0.154	-0.054
-539.208	310.110	0.056	0.104
-538.193	7.849	-0.157	0.118
-537.179	-180.837	0.324	0.007
-536.164	-15.580	0.031	0.020
-535.150	33.574	-0.085	0.075
-534.135	-183.630	0.140	-0.002
-533.121	135.616	-0.133	-0.173
-532.106	292.389	-0.112	-0.205
-531.091	577.518	-0.027	-0.067
-530.077	-109.840	0.372	0.078
-529.062	-142.603	-0.138	-0.014
-528.048	288.947	0.053	-0.097
-527.033	-60.911	-0.175	0.074
-526.018	-83.263	0.334	0.108
-525.004	26.187	0.098	0.082
-523.989	69.127	-0.146	-0.151
-522.975	-102.730	-0.138	-0.033
-521.960	1.440	0.047	-0.034
-520.945	-0.235	-0.195	0.139
-519.931	-200.000	0.025	0.133
-518.916	-57.761	0.243	-0.107
-517.902	-96.852	0.170	0.045
-516.887	53.095	0.071	0.068
-515.872	-200.000	0.002	0.011
-514.858	17.351	0.151	-0.120
-513.843	-91.855	0.064	-0.018
-512.829	349.581	0.104	-0.206
-511.814	160.273	-0.062	-0.087
-510.799	-75.651	-0.450	-0.160
-509.785	-200.000	-0.037	-0.302
-508.770	-200.000	-0.061	-0.329
-507.756	-64.652	-0.213	0.087
-506.741	-7.408	-0.349	-0.237
-505.726	-67.225	-0.232	0.092
-504.712	-103.524	0.114	-0.027
-503.697	199.165	-0.104	-0.160
-502.683	393.541	0.120	0.251
-501.668	-200.000	-0.061	-0.324
-500.653	63.626	-0.062	-0.063
-499.639	-90.175	-0.200	-0.058
-498.624	800.000	0.015	-0.048
-497.610	473.318	0.090	0.203
-496.595	421.643	-0.024	0.051
-495.581	-200.000	-0.084	0.375
-494.566	-200.000	-0.021	0.339
-493.551	198.647	-0.088	-0.135
-492.537	38.113	0.312	0.278
-491.522	-200.000	-0.031	0.452
-490.508	-76.013	-0.164	-0.058
-489.493	-3.704	0.340	0.236
-488.478	-200.000	0.027	-0.177
-487.464	-2.160	-0.139	0.098
-486.449	519.025	-0.137	-0.321
-485.435	352.417	0.082	0.163
-484.420	-200.000	-0.042	0.316
-483.405	800.000	0.176	-0.499
-482.391	-200.000	-0.025	0.310
-481.376	-79.045	-0.543	-0.185
-480.362	189.264	-0.057	-0.085
-479.347	374.351	0.069	0.140
-478.332	98.436	-0.016	0.018
-477.318	-65.747	-0.113	0.045
-476.303	800.000	0.023	-0.089
-475.289	337.519	-0.191	0.371
-474.274	-143.167	0.158	-0.015
-473.259	-200.000	0.038	-0.191
-472.245	-200.000	0.051	0.264
-471.230	-200.000	-0.003	-0.106
-470.216	-48.221	0.067	-0.032
-469.201	-16.965	0.304	-0.192
-468.186	-200.000	0.054	0.240
-467.172	15.994	0.201	-0.158
-466.157	73.768	0.123	-0.130
-465.143	-157.050	-0.077	0.005
-464.128	-51.398	0.217	-0.102
-463.113	-12.738	-0.243	-0.159
-462.099	-90.003	-0.378	-0.110
-461.084	108.461	-0.106	0.127
-460.070	54.911	-0.192	-0.186
-459.055	79.598	0.034	-0.037
-458.040	-150.778	-0.239	0.018
-457.026	700.292	-0.081	0.213
-456.011	-66.710	-0.262	0.104
-454.997	50.470	-0.062	0.058
-453.982	-200.000	-0.009	-0.068
-452.968	571.628	0.071	-0.173
-451.953	800.000	-0.044	0.131
-450.938	800.000	-0.133	-0.379
-449.924	181.746	0.025	0.037
-448.909	-92.872	-0.097	-0.027
-447.895	54.094	0.114	-0.109
-446.880	119.747	-0.133	0.165
-445.865	310.966	0.153	0.287
-444.851	229.153	0.151	0.247
-443.836	-181.400	-0.345	-0.007
-442.822	-200.000	-0.002	0.177
-441.807	-143.285	0.270	0.026
-440.792	-103.090	-0.087	-0.021
-439.778	337.549	0.094	-0.184
-438.763	-161.884	-0.067	0.003
-437.749	-200.000	-0.021	0.124
-436.734	-200.000	0.003	-0.187
-435.719	-200.000	0.028	-0.139
-434.705	232.272	-0.071	0.117
-433.690	-126.937	0.029	-0.004
-432.676	-105.571	0.245	-0.056
-431.661	33.187	-0.215	0.187
-430.646	-90.183	0.153	0.044
-429.632	-161.926	0.163	0.008
-428.617	176.229	0.177	-0.257
-427.603	-100.696	0.192	0.047
-426.588	-67.542	0.548	-0.215
-425.573	279.964	-0.205	0.366
-424.559	536.046	-0.232	0.551
-423.544	-135.395	0.285	-0.034
-422.530	65.976	-0.294	0.298
-421.515	-142.748	0.260	0.025
-420.500	-64.758	-0.361	0.146
-419.486	201.786	-0.315	0.485
-418.471	385.681	0.154	0.317
-417.457	-2.010	0.326	0.229
-416.442	11.242	-0.097	0.074
-415.428	12.164	-0.100	-0.077
-414.413	-63.090	-0.231	-0.095
-413.398	-48.517	0.331	0.159
-412.384	462.485	-0.088	-0.196
-411.369	-200.000	-0.013	0.122
-410.355	-200.000	-0.052	-0.237
-409.340	-93.369	-0.141	-0.039
-408.325	-100.051	0.272	-0.068
-407.311	410.981	-0.214	-0.453
-406.296	-105.637	0.150	-0.034
-405.282	800.000	-0.033	0.107
-404.267	-200.000	0.057	-0.385
-403.252	14.914	-0.067	-0.052
-402.238	-79.981	0.524	-0.176
-401.223	-87.858	-0.168	-0.051
-400.209	-59.044	-0.481	0.208
-399.194	-123.283	0.197	0.031
-398.179	-25.136	0.071	0.042
-397.165	177.598	-0.074	0.108
-396.150	36.920	-0.063	-0.056
-395.136	800.000	0.132	-0.488
-394.121	510.273	-0.080	0.185
-393.106	256.310	-0.057	0.098
-392.092	-27.266	-0.434	-0.252
-391.077	75.957	-0.045	-0.047
-390.063	564.457	0.110	0.267
-389.048	-25.645	-0.127	0.075
-388.033	124.582	-0.089	0.112
-387.019	-200.000	-0.016	-0.122
-386.004	118.115	-0.194	-0.239
-384.990	4.483	0.164	0.120
-383.975	188.381	0.068	0.102
-382.960	-146.716	-0.340	-0.029
-381.946	10.584	-0.222	0.169
-380.931	800.000	-0.084	0.332
-379.917	146.221	0.169	0.226
-378.902	-92.530	0.462	0.130
-377.888	800.000	0.146	0.441
-376.873	800.000	-0.030	0.099
-375.858	-116.713	0.216	0.040
-374.844	117.810	-0.221	0.272
-373.829	800.000	-0.036	0.144
-372.815	-85.652	0.325	-0.101
-371.800	-74.021	0.238	-0.086
-370.785	14.517	0.241	0.188
-369.771	143.390	0.079	0.104
-368.756	268.121	0.036	0.063
-367.742	26.153	-0.046	-0.038
-366.727	-200.000	-0.032	0.459
-365.712	800.000	-0.102	0.433
-364.698	-24.768	-0.277	0.164
-363.683	-21.778	-0.227	0.138
-362.669	-163.592	-0.197	0.009
-361.654	-157.143	-0.168	0.010
-360.639	305.630	-0.095	0.176
-359.625	416.688	0.116	0.247
-358.610	-25.755	-0.254	-0.150
-357.596	12.940	0.107	-0.082
-356.581	-162.812	-0.273	-0.013
-355.566	116.808	-0.043	-0.053
-354.552	-200.000	-0.004	0.037
-353.537	120.654	-0.088	0.109
-352.523	-149.415	-0.181	-0.014
-351.508	672.280	0.077	0.200
-350.493	-200.000	0.010	0.166
-349.479	-1.530	-0.111	-0.078
-348.464	-118.140	0.342	0.061
-347.450	198.387	-0.050	0.076
-346.435	-13.237	0.363	0.235
-345.420	7.108	0.144	0.107
-344.406	-200.000	-0.012	0.229
-343.391	-200.000	0.034	0.223
-342.377	-83.354	0.281	-0.090
-341.362	-26.705	0.162	-0.095
-340.348	-107.437	0.305	0.067
-339.333	-200.000	-0.018	0.173
-338.318	800.000	0.065	-0.265
-337.304	-138.440	-0.304	0.033
-336.289	-79.026	-0.214	0.072
-335.275	-99.648	0.445	-0.111
-334.260	-93.565	-0.161	-0.044
-333.245	45.357	0.053	-0.049
-332.231	273.517	0.103	0.182
-331.216	483.713	0.049	0.112
-330.202	-168.813	-0.188	-0.007
-329.187	-55.800	0.194	-0.086
-328.172	221.825	-0.099	-0.158
-327.158	167.415	-0.184	-0.261
-326.143	800.000	0.081	0.237
-325.129	-145.689	0.294	-0.026
-324.114	-130.559	-0.151	0.020
-323.099	-32.576	0.164	-0.091
-322.085	-200.000	-0.043	-0.256
-321.070	-134.082	-0.179	-0.022
-320.056	-129.105	-0.248	-0.035
-319.041	-14.888	-0.269	0.172
-318.026	800.000	-0.040	-0.153
-317.012	-95.405	0.356	0.095
-315.997	-7.726	0.146	0.098
-314.983	-87.338	-0.304	0.092
-313.968	540.942	-0.071	0.168
-312.953	800.000	-0.022	-0.092
-311.939	0.452	0.079	0.056
-310.924	113.516	0.197	0.238
-309.910	-55.436	0.138	0.062
-308.895	-39.886	0.225	-0.117
-307.880	230.250	0.057	-0.093
-306.866	800.000	-0.046	0.130
-305.851	-100.562	-0.224	-0.055
-304.837	142.557	-0.104	0.138
-303.822	145.456	0.150	-0.200
-302.807	-200.000	-0.002	-0.241
-301.793	-105.732	0.341	0.077
-300.778	-158.798	0.362	0.021
-299.764	-200.000	0.018	0.083
-298.749	800.000	0.128	-0.441
-297.735	49.185	0.146	-0.136
-296.720	63.434	-0.046	-0.046
-295.705	64.097	-0.123	0.123
-294.691	-12.570	-0.231	-0.150
-293.676	-113.111	-0.093	-0.018
-292.662	-128.292	0.020	-0.003
-291.647	-200.000	-0.031	-0.225
-290.632	-99.442	0.453	-0.113
-289.618	325.229	0.168	0.319
-288.603	118.621	0.048	0.059
-287.589	-122.235	0.337	0.055
-286.574	800.000	-0.081	-0.330
-285.559	-200.000	0.038	-0.207
-284.545	-200.000	0.049	-0.225
-283.530	160.270	-0.135	0.187
-282.516	63.665	0.128	0.128
-281.501	800.000	-0.021	-0.063
-280.486	-67.160	0.330	0.129
-279.472	-200.000	-0.046	0.211
-278.457	65.783	0.123	-0.124
-277.443	-7.518	0.135	-0.091
-276.428	-163.302	0.326	-0.015
-275.413	-2.394	-0.249	-0.173
-274.399	-200.000	0.001	-0.280
-273.384	652.837	-0.088	-0.225
-272.370	139.267	0.074	-0.096
-271.355	13.448	-0.088	0.068
-270.340	95.278	0.180	0.204
-269.326	-101.941	0.191	0.046
-268.311	-88.638	-0.178	-0.053
-267.297	105.418	-0.231	-0.271
-266.282	-5.642	0.135	-0.092
-265.267	323.103	0.118	-0.223
-264.253	-200.000	-0.047	-0.207
-263.238	-200.000	0.050	-0.246
-262.224	182.766	-0.081	-0.119
-261.209	-108.102	-0.351	-0.076
-260.195	-200.000	-0.005	0.120
-259.180	539.690	-0.027	-0.064
-258.165	-95.598	-0.164	0.044
-257.151	-107.021	-0.271	-0.059
-256.136	248.531	0.157	0.263
-255.122	-200.000	0.026	0.224
-254.107	-91.728	0.235	0.066
-253.092	-200.000	-0.006	-0.146
-252.078	-200.000	-0.032	0.151
-251.063	148.229	0.155	-0.208
-250.049	-200.000	-0.002	0.314
-249.034	-36.559	-0.183	-0.098
-248.019	270.372	-0.088	-0.154
-247.005	-136.522	-0.326	-0.038
-245.990	180.819	0.225	0.328
-244.976	61.775	-0.149	0.147
-243.961	140.460	0.262	-0.343
-242.946	314.829	-0.077	0.144
-241.932	6.238	0.323	0.238
-240.917	33.422	0.170	-0.146
-239.903	52.391	0.275	-0.260
-238.888	261.473	0.042	0.073
-237.873	-83.225	0.241	-0.077
-236.859	-144.115	0.154	0.014
-235.844	300.009	0.103	0.189
-234.830	-114.757	0.174	0.033
-233.815	141.273	0.077	-0.101
-232.800	-200.000	0.044	-0.206
-231.786	108.540	-0.142	-0.168
-230.771	-127.708	-0.172	-0.025
-229.757	800.000	0.050	0.162
-228.742	61.857	-0.169	-0.167
-227.727	800.000	-0.110	0.329
-226.713	115.281	0.115	-0.140
-225.698	-200.000	0.132	0.000
-224.684	108.031	0.238	0.282
-223.669	-123.362	-0.096	0.015
-222.655	274.965	0.172	0.302
-221.640	14.059	-0.120	0.093
-220.625	-91.470	-0.126	0.036
-219.611	-121.008	-0.175	0.029
-218.596	464.260	-0.163	-0.362
-217.582	-80.260	0.410	-0.136
-216.567	195.553	0.240	0.362
-215.552	-200.000	-0.007	-0.080
-214.538	103.143	0.024	-0.028
-213.523	-200.000	0.001	-0.233
-212.509	777.444	0.037	-0.100
-211.494	-47.129	-0.304	-0.147
-210.479	-4.122	0.241	-0.165
-209.465	-28.401	-0.160	0.092
-208.450	-163.924	-0.169	-0.008
-207.436	229.711	-0.050	0.080
-206.421	94.945	-0.301	-0.339
-205.406	800.000	0.010	0.039
-204.392	618.360	0.059	0.148
-203.377	248.586	0.158	-0.264
-202.363	-200.000	0.037	-0.185
-201.348	-200.000	-0.008	-0.120
-200.333	-79.096	-0.022	0.007
-199.319	82.401	-0.177	0.190
-198.304	800.000	0.063	0.256
-197.290	-144.002	-0.069	-0.006
-196.275	-200.000	-0.024	0.219
-195.260	-131.267	-0.086	0.011
-194.246	-11.690	0.318	0.207
-193.231	189.489	0.195	-0.290
-192.217	-36.878	0.249	0.132
-191.202	800.000	0.041	0.174
-190.187	800.000	0.069	0.289
-189.173	-9.174	-0.222	0.147
-188.158	8.561	-0.239	-0.179
-187.144	47.044	0.203	0.187
-186.129	-125.957	0.177	-0.026
-185.114	291.458	0.093	0.168
-184.100	800.000	-0.111	0.344
-183.085	-200.000	0.016	-0.249
-182.071	-17.407	0.444	0.277
-181.056	25.185	0.075	0.061
-180.042	326.317	-0.092	0.174
-179.027	103.841	-0.361	0.420
-178.012	27.530	0.280	-0.233
-176.998	-66.973	0.281	-0.110
-175.983	-200.000	-0.039	0.326
-174.969	-92.752	-0.750	-0.208
-173.954	-44.762	-0.233	0.115
-172.939	-101.351	-0.366	0.088
-171.925	-36.992	0.291	0.154
-170.910	-50.513	-0.064	-0.030
-169.896	-26.976	0.212	-0.122
-168.881	-94.058	-0.229	-0.062
-167.866	55.183	-0.091	0.087
-166.852	46.713	-0.341	0.313
-165.837	800.000	0.082	0.266
-164.823	66.639	0.190	0.192
-163.808	34.770	-0.177	0.153
-162.793	-98.083	0.178	0.045
-161.779	773.502	-0.096	-0.260
-160.764	312.095	-0.001	-0.001
-159.750	148.353	-0.121	0.161
-158.735	-114.303	-0.107	-0.020
-157.720	-177.533	-0.090	-0.002
-156.706	-101.758	-0.162	0.039
-155.691	-117.982	-0.216	0.038
-154.677	-158.787	-0.104	0.006
-153.662	800.000	0.055	0.237
-152.647	51.900	0.202	0.191
-151.633	-38.859	0.010	-0.005
-150.618	271.096	-0.133	-0.232
-149.604	116.911	0.036	-0.043
-148.589	443.094	-0.081	0.176
-147.574	31.222	-0.210	0.179
-146.560	511.469	0.039	-0.091
-145.545	284.528	0.210	0.373
-144.531	-80.597	0.187	-0.062
-143.516	800.000	-0.062	-0.194
-142.502	-122.967	0.200	0.032
-141.487	70.741	0.128	-0.131
-140.472	364.066	0.109	0.217
-139.458	189.357	-0.140	0.207
-138.443	424.452	0.083	-0.177
-137.429	-123.657	-0.135	0.021
-136.414	357.123	0.116	0.228
-135.399	800.000	-0.153	0.432
-134.385	-132.805	-0.406	-0.051
-133.370	131.849	0.160	-0.204
-132.356	-200.000	-0.021	0.217
-131.341	800.000	0.030	0.108
-130.326	-126.629	0.129	-0.019
-129.312	779.964	0.060	-0.163
-128.297	-54.867	-0.300	0.134
-127.283	116.454	0.083	0.100
-126.268	35.566	0.065	-0.056
-125.253	345.097	0.162	-0.314
-124.239	0.856	-0.091	-0.065
-123.224	291.885	-0.077	0.138
-122.210	18.853	-0.246	0.194
-121.195	-139.917	0.026	0.003
